Wavelength (nm),Intensity Source #127,,C:/Users/Brend/Desktop/LED Spectras v2/Spectrometer Data.sp,,,Source #127,
379.792,1.936,,2018-06-14 11:16:15,,Integration Time,132 ms,
380.000,1.933,,Analyze Light,,Number of Scans to Average,25,
380.209,1.931,,,,Smoothing,1,
380.418,1.944
380.627,1.958
380.837,1.972
381.048,1.976
381.259,1.973
381.471,1.967
381.683,1.969
381.896,1.979
382.110,1.985
382.324,1.997
382.538,2.014
382.753,2.028
382.969,2.025
383.185,2.013
383.402,2.007
383.619,2.014
383.837,2.027
384.055,2.048
384.274,2.068
384.493,2.085
384.712,2.095
384.932,2.104
385.153,2.111
385.374,2.120
385.596,2.129
385.818,2.147
386.040,2.162
386.263,2.174
386.487,2.176
386.710,2.179
386.935,2.171
387.159,2.168
387.385,2.158
387.610,2.154
387.836,2.155
388.063,2.162
388.289,2.171
388.517,2.176
388.744,2.178
388.972,2.193
389.201,2.206
389.430,2.222
389.659,2.224
389.889,2.232
390.119,2.239
390.349,2.254
390.580,2.267
390.811,2.277
391.042,2.280
391.274,2.286
391.507,2.291
391.739,2.292
391.972,2.285
392.205,2.288
392.439,2.299
392.673,2.315
392.907,2.328
393.142,2.343
393.377,2.359
393.612,2.371
393.848,2.372
394.084,2.371
394.320,2.370
394.557,2.378
394.794,2.388
395.031,2.402
395.269,2.414
395.507,2.425
395.745,2.430
395.983,2.439
396.222,2.449
396.461,2.467
396.700,2.491
396.940,2.508
397.180,2.511
397.420,2.505
397.660,2.500
397.901,2.504
398.142,2.512
398.383,2.516
398.625,2.516
398.866,2.521
399.108,2.541
399.351,2.567
399.593,2.572
399.836,2.570
400.079,2.559
400.322,2.559
400.566,2.555
400.809,2.557
401.053,2.560
401.298,2.566
401.542,2.574
401.787,2.585
402.031,2.597
402.277,2.613
402.522,2.621
402.767,2.631
403.013,2.629
403.259,2.638
403.505,2.645
403.752,2.652
403.998,2.652
404.245,2.666
404.492,2.682
404.739,2.695
404.986,2.699
405.234,2.707
405.482,2.711
405.730,2.713
405.978,2.717
406.226,2.722
406.475,2.719
406.723,2.720
406.972,2.726
407.221,2.742
407.470,2.751
407.720,2.759
407.969,2.758
408.219,2.768
408.469,2.779
408.719,2.794
408.969,2.798
409.219,2.806
409.470,2.817
409.720,2.830
409.971,2.841
410.222,2.854
410.473,2.860
410.724,2.863
410.976,2.865
411.227,2.880
411.479,2.889
411.731,2.896
411.983,2.891
412.235,2.896
412.487,2.899
412.740,2.905
412.992,2.906
413.245,2.911
413.497,2.913
413.750,2.919
414.003,2.915
414.257,2.912
414.510,2.905
414.763,2.914
415.017,2.924
415.270,2.934
415.524,2.933
415.778,2.933
416.032,2.932
416.286,2.940
416.540,2.947
416.794,2.958
417.049,2.958
417.303,2.959
417.558,2.958
417.812,2.964
418.067,2.968
418.322,2.974
418.577,2.972
418.832,2.970
419.088,2.960
419.343,2.962
419.598,2.955
419.854,2.957
420.109,2.957
420.365,2.975
420.621,2.986
420.876,2.997
421.132,2.995
421.388,2.997
421.645,2.997
421.901,3.004
422.157,3.011
422.413,3.022
422.670,3.023
422.926,3.025
423.183,3.019
423.439,3.036
423.696,3.058
423.953,3.101
424.210,3.137
424.467,3.162
424.724,3.168
424.981,3.166
425.238,3.178
425.495,3.211
425.753,3.249
426.010,3.284
426.267,3.310
426.525,3.352
426.782,3.394
427.040,3.445
427.298,3.494
427.555,3.555
427.813,3.607
428.071,3.661
428.329,3.712
428.587,3.775
428.845,3.841
429.103,3.913
429.361,3.987
429.619,4.071
429.878,4.154
430.136,4.252
430.394,4.347
430.653,4.466
430.911,4.595
431.170,4.736
431.428,4.864
431.687,4.990
431.946,5.113
432.204,5.254
432.463,5.400
432.722,5.563
432.981,5.727
433.240,5.906
433.499,6.099
433.758,6.312
434.017,6.521
434.276,6.732
434.535,6.936
434.794,7.161
435.053,7.397
435.312,7.657
435.572,7.917
435.831,8.197
436.090,8.485
436.350,8.791
436.609,9.106
436.869,9.436
437.128,9.771
437.388,10.110
437.647,10.457
437.907,10.842
438.166,11.235
438.426,11.642
438.686,12.041
438.946,12.479
439.205,12.937
439.465,13.430
439.725,13.942
439.985,14.474
440.245,15.012
440.505,15.564
440.765,16.126
441.025,16.706
441.285,17.298
441.545,17.925
441.805,18.595
442.065,19.296
442.325,20.038
442.585,20.814
442.846,21.629
443.106,22.482
443.366,23.373
443.626,24.306
443.887,25.271
444.147,26.278
444.407,27.331
444.668,28.435
444.928,29.590
445.189,30.803
445.449,32.079
445.710,33.420
445.970,34.827
446.231,36.294
446.491,37.823
446.752,39.412
447.012,41.066
447.273,42.788
447.534,44.561
447.794,46.376
448.055,48.243
448.316,50.193
448.577,52.233
448.837,54.354
449.098,56.514
449.359,58.708
449.620,60.896
449.881,63.088
450.142,65.277
450.403,67.489
450.664,69.739
450.924,72.004
451.185,74.264
451.446,76.489
451.707,78.648
451.969,80.725
452.230,82.649
452.491,84.337
452.752,85.734
453.013,86.875
453.274,87.844
453.535,88.686
453.796,89.408
454.058,90.030
454.319,90.571
454.580,91.030
454.841,91.402
455.103,91.684
455.364,91.887
455.625,92.038
455.887,92.142
456.148,92.205
456.409,92.211
456.671,92.157
456.932,92.056
457.194,91.907
457.455,91.710
457.716,91.462
457.978,91.164
458.239,90.798
458.501,90.368
458.763,89.866
459.024,89.285
459.286,88.613
459.547,87.847
459.809,86.978
460.071,85.950
460.332,84.731
460.594,83.304
460.856,81.714
461.117,80.007
461.379,78.251
461.641,76.495
461.903,74.752
462.164,73.029
462.426,71.315
462.688,69.637
462.950,67.996
463.212,66.407
463.474,64.862
463.736,63.357
463.998,61.920
464.260,60.563
464.522,59.292
464.784,58.062
465.046,56.877
465.308,55.743
465.570,54.688
465.832,53.688
466.094,52.741
466.356,51.819
466.618,50.924
466.880,50.036
467.142,49.158
467.405,48.322
467.667,47.528
467.929,46.776
468.191,46.029
468.454,45.267
468.716,44.491
468.978,43.690
469.241,42.877
469.503,42.079
469.765,41.313
470.028,40.584
470.290,39.854
470.552,39.117
470.815,38.376
471.077,37.625
471.340,36.878
471.602,36.128
471.865,35.390
472.128,34.642
472.390,33.907
472.653,33.164
472.915,32.435
473.178,31.692
473.441,30.959
473.703,30.202
473.966,29.449
474.229,28.683
474.492,27.937
474.755,27.190
475.017,26.480
475.280,25.790
475.543,25.128
475.806,24.453
476.069,23.776
476.332,23.109
476.595,22.472
476.858,21.856
477.121,21.249
477.384,20.647
477.647,20.078
477.910,19.530
478.173,19.001
478.436,18.478
478.699,17.989
478.962,17.519
479.226,17.072
479.489,16.620
479.752,16.189
480.015,15.763
480.279,15.359
480.542,14.961
480.805,14.584
481.069,14.213
481.332,13.864
481.595,13.539
481.859,13.249
482.122,12.957
482.386,12.652
482.649,12.335
482.913,12.035
483.177,11.753
483.440,11.479
483.704,11.212
483.967,10.959
484.231,10.715
484.495,10.483
484.759,10.250
485.022,10.022
485.286,9.792
485.550,9.561
485.814,9.314
486.078,9.072
486.342,8.842
486.606,8.641
486.869,8.446
487.133,8.263
487.397,8.078
487.662,7.895
487.926,7.697
488.190,7.503
488.454,7.300
488.718,7.117
488.982,6.926
489.246,6.753
489.511,6.569
489.775,6.392
490.039,6.212
490.304,6.043
490.568,5.875
490.832,5.725
491.097,5.581
491.361,5.451
491.626,5.313
491.890,5.179
492.155,5.037
492.419,4.911
492.684,4.770
492.949,4.634
493.213,4.494
493.478,4.380
493.743,4.267
494.008,4.149
494.272,4.029
494.537,3.931
494.802,3.840
495.067,3.759
495.332,3.680
495.597,3.615
495.862,3.537
496.127,3.459
496.392,3.373
496.657,3.294
496.922,3.211
497.187,3.140
497.452,3.075
497.718,3.029
497.983,2.976
498.248,2.923
498.513,2.861
498.779,2.814
499.044,2.774
499.310,2.730
499.575,2.677
499.841,2.629
500.106,2.591
500.372,2.554
500.637,2.517
500.903,2.493
501.168,2.467
501.434,2.430
501.700,2.378
501.966,2.340
502.231,2.310
502.497,2.286
502.763,2.253
503.029,2.221
503.295,2.192
503.561,2.168
503.827,2.151
504.093,2.131
504.359,2.113
504.625,2.096
504.891,2.079
505.157,2.066
505.423,2.046
505.690,2.024
505.956,1.998
506.222,1.980
506.489,1.977
506.755,1.980
507.021,1.978
507.288,1.971
507.554,1.951
507.821,1.933
508.087,1.915
508.354,1.911
508.621,1.900
508.887,1.882
509.154,1.861
509.421,1.846
509.687,1.831
509.954,1.815
510.221,1.802
510.488,1.802
510.755,1.803
511.022,1.806
511.289,1.796
511.556,1.783
511.823,1.770
512.090,1.771
512.357,1.767
512.624,1.759
512.891,1.740
513.159,1.723
513.426,1.712
513.693,1.708
513.960,1.708
514.228,1.710
514.495,1.710
514.763,1.706
515.030,1.695
515.298,1.683
515.565,1.678
515.833,1.675
516.100,1.672
516.368,1.662
516.636,1.652
516.904,1.650
517.171,1.645
517.439,1.639
517.707,1.629
517.975,1.629
518.243,1.632
518.511,1.634
518.779,1.623
519.047,1.621
519.315,1.620
519.583,1.615
519.851,1.596
520.119,1.582
520.387,1.579
520.656,1.585
520.924,1.589
521.192,1.593
521.461,1.595
521.729,1.603
521.997,1.608
522.266,1.608
522.534,1.602
522.803,1.599
523.071,1.595
523.340,1.581
523.609,1.563
523.877,1.550
524.146,1.547
524.415,1.550
524.684,1.555
524.952,1.554
525.221,1.552
525.490,1.559
525.759,1.568
526.028,1.570
526.297,1.549
526.566,1.533
526.835,1.528
527.104,1.538
527.373,1.549
527.642,1.542
527.912,1.528
528.181,1.513
528.450,1.512
528.719,1.519
528.989,1.535
529.258,1.547
529.528,1.547
529.797,1.536
530.067,1.525
530.336,1.516
530.606,1.508
530.875,1.497
531.145,1.493
531.414,1.496
531.684,1.506
531.954,1.511
532.224,1.508
532.493,1.493
532.763,1.483
533.033,1.483
533.303,1.490
533.573,1.493
533.843,1.485
534.113,1.481
534.383,1.478
534.653,1.481
534.923,1.481
535.193,1.484
535.463,1.493
535.733,1.505
536.004,1.514
536.274,1.517
536.544,1.508
536.814,1.493
537.085,1.481
537.355,1.487
537.626,1.503
537.896,1.513
538.166,1.510
538.437,1.504
538.707,1.500
538.978,1.506
539.249,1.518
539.519,1.523
539.790,1.511
540.061,1.501
540.331,1.504
540.602,1.522
540.873,1.531
541.144,1.531
541.414,1.520
541.685,1.516
541.956,1.509
542.227,1.505
542.498,1.497
542.769,1.497
543.040,1.506
543.311,1.523
543.582,1.538
543.853,1.546
544.124,1.551
544.396,1.557
544.667,1.560
544.938,1.551
545.209,1.520
545.480,1.498
545.752,1.489
546.023,1.499
546.294,1.497
546.566,1.484
546.837,1.467
547.109,1.461
547.380,1.462
547.652,1.464
547.923,1.466
548.195,1.473
548.466,1.490
548.738,1.506
549.009,1.504
549.281,1.489
549.553,1.469
549.824,1.453
550.096,1.443
550.368,1.440
550.640,1.446
550.911,1.456
551.183,1.472
551.455,1.492
551.727,1.506
551.999,1.498
552.271,1.476
552.543,1.454
552.815,1.448
553.087,1.457
553.359,1.468
553.631,1.476
553.903,1.477
554.175,1.481
554.447,1.492
554.719,1.498
554.991,1.495
555.263,1.487
555.535,1.477
555.808,1.470
556.080,1.459
556.352,1.450
556.624,1.444
556.897,1.440
557.169,1.442
557.441,1.443
557.714,1.444
557.986,1.442
558.258,1.438
558.531,1.443
558.803,1.448
559.076,1.451
559.348,1.444
559.621,1.439
559.893,1.439
560.166,1.441
560.438,1.441
560.711,1.436
560.983,1.434
561.256,1.434
561.528,1.443
561.801,1.453
562.074,1.466
562.346,1.478
562.619,1.485
562.892,1.483
563.164,1.473
563.437,1.470
563.710,1.467
563.983,1.459
564.255,1.447
564.528,1.449
564.801,1.462
565.074,1.471
565.346,1.467
565.619,1.458
565.892,1.457
566.165,1.454
566.438,1.444
566.711,1.431
566.984,1.427
567.257,1.430
567.529,1.439
567.802,1.456
568.075,1.468
568.348,1.472
568.621,1.469
568.894,1.463
569.167,1.459
569.440,1.451
569.713,1.438
569.986,1.428
570.259,1.422
570.532,1.425
570.805,1.427
571.078,1.432
571.351,1.436
571.625,1.439
571.898,1.435
572.171,1.425
572.444,1.418
572.717,1.424
572.990,1.434
573.263,1.436
573.536,1.426
573.809,1.413
574.083,1.410
574.356,1.417
574.629,1.433
574.902,1.441
575.175,1.438
575.448,1.425
575.721,1.418
575.995,1.420
576.268,1.428
576.541,1.438
576.814,1.444
577.087,1.449
577.361,1.450
577.634,1.448
577.907,1.436
578.180,1.421
578.453,1.413
578.727,1.413
579.000,1.418
579.273,1.424
579.546,1.434
579.820,1.446
580.093,1.450
580.366,1.446
580.639,1.436
580.913,1.427
581.186,1.423
581.459,1.419
581.732,1.413
582.005,1.409
582.279,1.406
582.552,1.410
582.825,1.413
583.098,1.420
583.372,1.425
583.645,1.431
583.918,1.432
584.191,1.430
584.464,1.425
584.738,1.423
585.011,1.422
585.284,1.420
585.557,1.419
585.831,1.423
586.104,1.436
586.377,1.453
586.650,1.463
586.923,1.461
587.196,1.450
587.470,1.437
587.743,1.431
588.016,1.425
588.289,1.428
588.562,1.434
588.835,1.438
589.109,1.437
589.382,1.429
589.655,1.424
589.928,1.417
590.201,1.412
590.474,1.417
590.747,1.427
591.020,1.438
591.293,1.444
591.567,1.444
591.840,1.441
592.113,1.436
592.386,1.426
592.659,1.417
592.932,1.413
593.205,1.419
593.478,1.424
593.751,1.422
594.024,1.419
594.297,1.413
594.570,1.409
594.843,1.410
595.116,1.417
595.389,1.422
595.662,1.419
595.934,1.417
596.207,1.423
596.480,1.436
596.753,1.445
597.026,1.445
597.299,1.441
597.572,1.438
597.844,1.433
598.117,1.420
598.390,1.409
598.663,1.405
598.936,1.411
599.208,1.418
599.481,1.425
599.754,1.428
600.026,1.421
600.299,1.412
600.572,1.406
600.844,1.406
601.117,1.401
601.390,1.399
601.662,1.399
601.935,1.399
602.207,1.397
602.480,1.400
602.752,1.406
603.025,1.407
603.297,1.404
603.570,1.409
603.842,1.420
604.115,1.430
604.387,1.434
604.660,1.429
604.932,1.426
605.204,1.428
605.477,1.437
605.749,1.445
606.021,1.452
606.294,1.452
606.566,1.444
606.838,1.439
607.110,1.439
607.383,1.449
607.655,1.454
607.927,1.462
608.199,1.465
608.471,1.465
608.743,1.455
609.015,1.450
609.287,1.447
609.559,1.448
609.831,1.448
610.103,1.448
610.375,1.446
610.647,1.441
610.919,1.435
611.191,1.431
611.463,1.432
611.735,1.435
612.007,1.430
612.278,1.423
612.550,1.418
612.822,1.425
613.094,1.432
613.365,1.436
613.637,1.437
613.909,1.437
614.180,1.439
614.452,1.436
614.723,1.426
614.995,1.417
615.266,1.413
615.538,1.421
615.809,1.428
616.081,1.425
616.352,1.416
616.623,1.411
616.895,1.410
617.166,1.405
617.437,1.400
617.709,1.401
617.980,1.407
618.251,1.416
618.522,1.424
618.793,1.438
619.065,1.452
619.336,1.451
619.607,1.440
619.878,1.433
620.149,1.440
620.420,1.441
620.691,1.433
620.962,1.426
621.232,1.429
621.503,1.426
621.774,1.421
622.045,1.416
622.316,1.423
622.586,1.434
622.857,1.448
623.128,1.451
623.398,1.450
623.669,1.445
623.940,1.436
624.210,1.425
624.481,1.425
624.751,1.426
625.021,1.421
625.292,1.405
625.562,1.396
625.833,1.397
626.103,1.400
626.373,1.401
626.643,1.404
626.914,1.411
627.184,1.416
627.454,1.416
627.724,1.415
627.994,1.417
628.264,1.422
628.534,1.421
628.804,1.416
629.074,1.414
629.344,1.416
629.614,1.418
629.884,1.411
630.154,1.398
630.424,1.386
630.693,1.373
630.963,1.364
631.233,1.358
631.502,1.367
631.772,1.382
632.041,1.396
632.311,1.402
632.581,1.404
632.850,1.402
633.119,1.394
633.389,1.381
633.658,1.373
633.928,1.376
634.197,1.384
634.466,1.394
634.735,1.400
635.004,1.398
635.274,1.394
635.543,1.390
635.812,1.392
636.081,1.395
636.350,1.398
636.619,1.402
636.888,1.403
637.157,1.407
637.426,1.413
637.694,1.415
637.963,1.411
638.232,1.402
638.501,1.396
638.769,1.397
639.038,1.402
639.307,1.414
639.575,1.423
639.844,1.423
640.112,1.416
640.381,1.403
640.649,1.399
640.917,1.401
641.186,1.402
641.454,1.405
641.722,1.406
641.991,1.409
642.259,1.405
642.527,1.401
642.795,1.399
643.063,1.394
643.331,1.392
643.599,1.389
643.867,1.393
644.135,1.392
644.403,1.392
644.671,1.393
644.939,1.402
645.206,1.409
645.474,1.414
645.742,1.403
646.009,1.388
646.277,1.379
646.545,1.383
646.812,1.398
647.080,1.412
647.347,1.420
647.615,1.417
647.882,1.406
648.149,1.394
648.417,1.386
648.684,1.387
648.951,1.397
649.219,1.405
649.486,1.406
649.753,1.399
650.020,1.390
650.287,1.383
650.554,1.377
650.821,1.374
651.088,1.376
651.355,1.385
651.622,1.393
651.889,1.398
652.155,1.394
652.422,1.391
652.689,1.393
652.956,1.397
653.222,1.405
653.489,1.420
653.755,1.430
654.022,1.429
654.288,1.416
654.555,1.406
654.821,1.407
655.088,1.414
655.354,1.421
655.620,1.428
655.887,1.431
656.153,1.432
656.419,1.429
656.685,1.424
656.951,1.418
657.217,1.410
657.483,1.402
657.749,1.395
658.015,1.396
658.281,1.398
658.547,1.396
658.813,1.387
659.079,1.381
659.345,1.376
659.610,1.378
659.876,1.382
660.142,1.388
660.407,1.391
660.673,1.396
660.939,1.403
661.204,1.405
661.470,1.399
661.735,1.394
662.000,1.395
662.266,1.396
662.531,1.394
662.796,1.391
663.062,1.387
663.327,1.382
663.592,1.381
663.857,1.382
664.122,1.382
664.388,1.379
664.653,1.380
664.918,1.385
665.183,1.389
665.448,1.394
665.712,1.400
665.977,1.406
666.242,1.408
666.507,1.394
666.772,1.380
667.037,1.367
667.301,1.368
667.566,1.374
667.831,1.383
668.095,1.390
668.360,1.393
668.624,1.392
668.889,1.393
669.153,1.391
669.418,1.391
669.682,1.388
669.946,1.392
670.211,1.400
670.475,1.409
670.739,1.417
671.004,1.429
671.268,1.455
671.532,1.482
671.796,1.477
672.060,1.457
672.324,1.435
672.588,1.439
672.852,1.450
673.116,1.486
673.380,1.515
673.644,1.495
673.908,1.447
674.172,1.403
674.436,1.405
674.700,1.408
674.963,1.411
675.227,1.411
675.491,1.405
675.754,1.397
676.018,1.393
676.282,1.395
676.545,1.391
676.809,1.383
677.072,1.376
677.336,1.374
677.599,1.377
677.863,1.380
678.126,1.385
678.389,1.396
678.653,1.407
678.916,1.407
679.179,1.397
679.442,1.395
679.706,1.403
679.969,1.409
680.232,1.412
680.495,1.417
680.758,1.424
681.021,1.422
681.284,1.410
681.547,1.396
681.810,1.395
682.073,1.406
682.336,1.417
682.599,1.417
682.862,1.413
683.125,1.414
683.388,1.418
683.651,1.417
683.913,1.412
684.176,1.403
684.439,1.394
684.702,1.384
684.964,1.379
685.227,1.381
685.490,1.390
685.752,1.403
686.015,1.409
686.277,1.405
686.540,1.391
686.802,1.382
687.065,1.382
687.327,1.390
687.590,1.394
687.852,1.389
688.115,1.380
688.377,1.376
688.639,1.377
688.902,1.379
689.164,1.383
689.426,1.391
689.689,1.397
689.951,1.394
690.213,1.385
690.475,1.382
690.737,1.382
691.000,1.379
691.262,1.376
691.524,1.381
691.786,1.394
692.048,1.409
692.310,1.410
692.572,1.397
692.834,1.380
693.096,1.372
693.358,1.378
693.620,1.391
693.882,1.404
694.144,1.409
694.406,1.405
694.668,1.401
694.930,1.393
695.192,1.389
695.453,1.388
695.715,1.391
695.977,1.392
696.239,1.386
696.501,1.384
696.762,1.391
697.024,1.398
697.286,1.395
697.548,1.386
697.809,1.380
698.071,1.378
698.333,1.380
698.594,1.380
698.856,1.387
699.118,1.392
699.379,1.396
699.641,1.402
699.902,1.405
700.164,1.405
700.426,1.398
700.687,1.390
700.949,1.390
701.210,1.390
701.472,1.388
701.733,1.382
701.995,1.382
702.256,1.383
702.518,1.385
702.779,1.385
703.041,1.396
703.302,1.411
703.563,1.417
703.825,1.409
704.086,1.397
704.348,1.391
704.609,1.391
704.871,1.397
705.132,1.403
705.393,1.398
705.655,1.390
705.916,1.387
706.177,1.388
706.439,1.389
706.700,1.386
706.961,1.385
707.223,1.383
707.484,1.371
707.745,1.354
708.007,1.338
708.268,1.328
708.529,1.321
708.790,1.310
709.052,1.304
709.313,1.305
709.574,1.309
709.835,1.313
710.097,1.309
710.358,1.296
710.619,1.279
710.881,1.268
711.142,1.264
711.403,1.262
711.664,1.261
711.926,1.256
712.187,1.258
712.448,1.264
712.709,1.276
712.970,1.284
713.232,1.288
713.493,1.293
713.754,1.294
714.015,1.293
714.277,1.293
714.538,1.298
714.799,1.310
715.060,1.316
715.322,1.317
715.583,1.309
715.844,1.300
716.105,1.288
716.367,1.280
716.628,1.279
716.889,1.280
717.150,1.276
717.411,1.270
717.673,1.271
717.934,1.275
718.195,1.279
718.457,1.275
718.718,1.268
718.979,1.265
719.240,1.270
719.502,1.280
719.763,1.288
720.024,1.293
720.286,1.295
720.547,1.288
720.808,1.279
721.069,1.271
721.331,1.276
721.592,1.287
721.853,1.295
722.115,1.298
722.376,1.300
722.638,1.299
722.899,1.298
723.160,1.289
723.422,1.280
723.683,1.273
723.944,1.274
724.206,1.273
724.467,1.272
724.729,1.270
724.990,1.278
725.252,1.285
725.513,1.283
725.775,1.271
726.036,1.260
726.298,1.258
726.559,1.262
726.821,1.264
727.082,1.263
727.344,1.260
727.605,1.259
727.867,1.258
728.128,1.261
728.390,1.266
728.652,1.277
728.913,1.293
729.175,1.300
729.436,1.297
729.698,1.292
729.960,1.287
730.221,1.283
730.483,1.270
730.745,1.264
731.007,1.263
731.268,1.265
731.530,1.269
731.792,1.276
732.054,1.285
732.315,1.293
732.577,1.294
732.839,1.287
733.101,1.276
733.363,1.268
733.625,1.267
733.887,1.269
734.149,1.271
734.411,1.279
734.673,1.285
734.935,1.289
735.197,1.286
735.459,1.289
735.721,1.291
735.983,1.288
736.245,1.276
736.507,1.273
736.769,1.280
737.031,1.288
737.293,1.285
737.555,1.275
737.818,1.266
738.080,1.260
738.342,1.258
738.604,1.258
738.867,1.257
739.129,1.254
739.391,1.252
739.654,1.255
739.916,1.259
740.178,1.267
740.441,1.279
740.703,1.283
740.966,1.276
741.228,1.264
741.491,1.259
741.753,1.266
742.016,1.269
742.278,1.273
742.541,1.276
742.804,1.282
743.066,1.289
743.329,1.290
743.592,1.284
743.854,1.278
744.117,1.280
744.380,1.288
744.643,1.288
744.905,1.283
745.168,1.277
745.431,1.274
745.694,1.270
745.957,1.266
746.220,1.262
746.483,1.260
746.746,1.259
747.009,1.271
747.272,1.293
747.535,1.311
747.798,1.313
748.061,1.299
748.324,1.282
748.588,1.271
748.851,1.266
749.114,1.263
749.377,1.264
749.641,1.267
749.904,1.274
750.167,1.282
750.431,1.289
750.694,1.297
750.958,1.299
751.221,1.296
751.485,1.282
751.748,1.271
752.012,1.274
752.275,1.286
752.539,1.290
752.803,1.283
753.066,1.272
753.330,1.267
753.594,1.265
753.857,1.267
754.121,1.275
754.385,1.285
754.649,1.290
754.913,1.294
755.177,1.297
755.441,1.298
755.705,1.292
755.969,1.282
756.233,1.280
756.497,1.283
756.761,1.285
757.025,1.281
757.289,1.276
757.553,1.276
757.818,1.282
758.082,1.287
758.346,1.288
758.610,1.287
758.875,1.286
759.139,1.286
759.404,1.282
759.668,1.277
759.932,1.278
760.197,1.282
760.462,1.284
760.726,1.282
760.991,1.280
761.255,1.284
761.520,1.286
761.785,1.283
762.049,1.270
762.314,1.260
762.579,1.262
762.844,1.275
763.109,1.285
763.374,1.287
763.639,1.282
763.903,1.279
764.168,1.275
764.433,1.274
764.699,1.275
764.964,1.279
765.229,1.277
765.494,1.272
765.759,1.268
766.024,1.266
766.290,1.270
766.555,1.276
766.820,1.279
767.086,1.282
767.351,1.284
767.616,1.284
767.882,1.281
768.147,1.278
768.413,1.273
768.678,1.266
768.944,1.260
769.209,1.266
769.475,1.279
769.741,1.290
770.006,1.297
770.272,1.299
770.538,1.297
770.804,1.293
771.070,1.290
771.335,1.297
771.601,1.305
771.867,1.309
772.133,1.305
772.399,1.296
772.665,1.286
772.931,1.284
773.197,1.291
773.464,1.301
773.730,1.308
773.996,1.306
774.262,1.304
774.528,1.297
774.795,1.297
775.061,1.301
775.327,1.303
775.594,1.298
775.860,1.289
776.126,1.279
776.393,1.273
776.659,1.265
776.926,1.259
777.193,1.259
777.459,1.264
777.726,1.270
777.992,1.272
778.259,1.271
778.526,1.275
778.793,1.275
779.059,1.277
779.326,1.278
779.593,1.280
779.860,1.285
780.127,1.284
780.394,1.284
780.661,1.283
780.928,1.283
781.195,1.279
781.462,1.274
781.729,1.273
781.996,1.277
782.263,1.280
782.530,1.288
782.797,1.292
783.064,1.286
783.332,1.275
783.599,1.266
783.866,1.267
784.134,1.267
784.401,1.266
784.668,1.266
784.936,1.269
785.203,1.267
785.470,1.258
785.738,1.253
786.005,1.251
786.273,1.251
786.541,1.249
786.808,1.251
787.076,1.257
787.343,1.262
787.611,1.268
787.879,1.274
788.146,1.280
788.414,1.288
788.682,1.288
788.950,1.287
789.217,1.286
789.485,1.294
789.753,1.299
790.021,1.293
790.289,1.278
790.557,1.264
790.825,1.258
791.093,1.265
791.361,1.279
791.629,1.291
791.897,1.294
792.165,1.287
792.433,1.278
792.701,1.266
792.969,1.256
793.237,1.253
793.505,1.259
793.773,1.270
794.042,1.270
794.310,1.265
794.578,1.258
794.846,1.256
795.115,1.255
795.383,1.256
795.651,1.265
795.920,1.273
796.188,1.280
796.456,1.285
796.725,1.288
796.993,1.295
797.261,1.298
797.530,1.298
797.798,1.292
798.067,1.292
798.335,1.297
798.604,1.296
798.872,1.286
799.141,1.277
799.409,1.271
799.678,1.270
799.946,1.274
800.215,1.280
800.483,1.284
800.752,1.284
801.020,1.278
801.289,1.273
801.558,1.271
801.826,1.272
802.095,1.270
802.363,1.269
802.632,1.271
802.901,1.279
803.169,1.280
803.438,1.275
803.707,1.266
803.976,1.260
804.244,1.259
804.513,1.261
804.782,1.257
805.050,1.254
805.319,1.257
805.588,1.266
805.857,1.278
806.125,1.285
806.394,1.287
806.663,1.282
806.931,1.271
807.200,1.265
807.469,1.261
807.738,1.258
808.006,1.256
808.275,1.263
808.544,1.279
808.813,1.291
809.082,1.290
809.350,1.282
809.619,1.274
809.888,1.268
810.157,1.262
810.425,1.256
810.694,1.257
810.963,1.264
811.232,1.268
811.500,1.263
811.769,1.254
812.038,1.254
812.306,1.261
812.575,1.273
812.844,1.281
813.113,1.282
813.381,1.276
813.650,1.274
813.919,1.279
814.187,1.288
814.456,1.292
814.725,1.294
814.993,1.290
815.262,1.286
815.531,1.281
815.799,1.279
816.068,1.269
816.336,1.256
816.605,1.253
816.873,1.262
817.142,1.276
817.411,1.285
817.679,1.288
817.948,1.294
818.216,1.306
818.485,1.333
818.753,1.350
819.021,1.337
819.290,1.300
819.558,1.275
819.827,1.275
820.095,1.284
820.363,1.287
820.632,1.288
820.900,1.287
821.168,1.290
821.437,1.292
821.705,1.294
821.973,1.294
822.241,1.294
822.509,1.294
822.777,1.289
823.046,1.283
823.314,1.284
823.582,1.289
823.850,1.293
824.118,1.292
824.386,1.288
824.654,1.276
824.922,1.264
825.190,1.258
825.457,1.268
825.725,1.278
825.993,1.276
826.261,1.266
826.529,1.258
826.796,1.255
827.064,1.253
827.332,1.256
827.599,1.266
827.867,1.280
828.134,1.286
828.402,1.279
828.669,1.268
828.937,1.265
829.204,1.279
829.471,1.299
829.739,1.309
830.006,1.306
830.273,1.294
830.540,1.281
830.807,1.265
831.075,1.260
831.342,1.268
831.609,1.276
831.876,1.284
832.142,1.288
832.409,1.294
832.676,1.290
832.943,1.277
833.210,1.264
833.476,1.264
833.743,1.271
834.010,1.279
834.276,1.275
834.543,1.266
834.809,1.262
835.076,1.262
835.342,1.265
835.608,1.274
835.874,1.283
836.141,1.286
836.407,1.283
836.673,1.277
836.939,1.275
837.205,1.272
837.471,1.269
837.737,1.268
838.002,1.266
838.268,1.267
838.534,1.269
838.799,1.271
839.065,1.277
839.330,1.281
839.596,1.281
839.861,1.280
840.127,1.281
840.392,1.284
840.657,1.285
840.922,1.295
841.187,1.306
841.452,1.312
841.717,1.309
841.982,1.299
842.247,1.287
842.511,1.278
842.776,1.276
843.041,1.277
843.305,1.271
843.570,1.265
843.834,1.263
844.098,1.265
844.362,1.267
844.627,1.266
844.891,1.266
845.155,1.269
845.419,1.277
845.682,1.282
845.946,1.285
846.210,1.286
846.474,1.284
846.737,1.284
847.001,1.281
847.264,1.274
847.527,1.269
847.790,1.270
848.054,1.274
848.317,1.270
848.580,1.265
848.843,1.266
849.105,1.278
849.368,1.294
849.631,1.305
849.893,1.310
850.156,1.312
850.418,1.310
850.680,1.296
850.943,1.283
851.205,1.282
851.467,1.283
851.729,1.278
851.991,1.273
852.252,1.280
852.514,1.291
852.776,1.295
853.037,1.297
853.298,1.291
853.560,1.285
853.821,1.276
854.082,1.271
854.343,1.278
854.604,1.293
854.865,1.312
855.126,1.320
855.386,1.324
855.647,1.324
855.907,1.320
856.168,1.306
856.428,1.292
856.688,1.283
856.948,1.271
857.208,1.259
857.468,1.255
857.727,1.261
857.987,1.269
858.247,1.278
858.506,1.292
858.765,1.298
859.024,1.289
859.284,1.274
859.543,1.262
859.801,1.259
860.060,1.264
860.319,1.276
860.577,1.287
860.836,1.292
861.094,1.293
861.352,1.292
861.611,1.285
861.869,1.273
862.127,1.267
862.384,1.271
862.642,1.276
862.900,1.286
863.157,1.291
863.414,1.291
863.672,1.279
863.929,1.265
864.186,1.258
864.443,1.260
864.699,1.266
864.956,1.269
865.212,1.263
865.469,1.261
865.725,1.266
865.981,1.278
866.237,1.284
866.493,1.284
866.749,1.275
867.005,1.268
867.260,1.258
867.516,1.257
867.771,1.255
868.026,1.258
868.282,1.270
868.536,1.281
868.791,1.282
869.046,1.272
869.301,1.262
869.555,1.261
869.809,1.269
870.064,1.279
870.318,1.288
870.572,1.290
870.826,1.280
871.079,1.269
871.333,1.264
871.586,1.271
871.840,1.272
872.093,1.270
872.346,1.270
872.599,1.281
872.852,1.295
873.105,1.304
873.357,1.298
873.610,1.288
873.862,1.286
874.114,1.294
874.366,1.301
874.618,1.298
874.870,1.283
875.121,1.268
875.373,1.264
875.624,1.272
875.876,1.278
876.127,1.278
876.378,1.273
876.629,1.270
876.879,1.272
877.130,1.276
877.381,1.272
877.631,1.260
877.881,1.251
878.131,1.256
878.381,1.273
878.631,1.294
878.881,1.303
879.130,1.303
879.380,1.293
879.629,1.285
879.878,1.279
880.127,1.278
880.376,1.280
880.625,1.286
880.873,1.295
881.122,1.301
881.370,1.299
881.618,1.289
881.866,1.276
882.114,1.266
882.362,1.264
882.610,1.267
882.857,1.272
883.105,1.272
883.352,1.264
883.599,1.255
883.846,1.250
884.093,1.253
884.340,1.262
884.586,1.275
884.833,1.286
885.079,1.291
885.325,1.289
885.571,1.287
885.817,1.284
886.063,1.285
886.309,1.285
886.554,1.293
886.800,1.300
887.045,1.306
887.290,1.296
887.535,1.281
887.780,1.274
888.025,1.282
888.270,1.297
888.514,1.308
888.758,1.309
889.003,1.300
889.247,1.282
889.491,1.276
889.735,1.280
889.978,1.294
890.222,1.298
890.465,1.294
890.709,1.286
890.952,1.277
891.195,1.270
891.438,1.264
891.681,1.258
891.923,1.255
892.166,1.258
892.408,1.261
892.651,1.260
892.893,1.254
893.135,1.249
893.377,1.249
893.619,1.254
893.861,1.265
894.102,1.277
894.344,1.296
894.585,1.315
894.826,1.323
895.067,1.311
895.308,1.292
895.549,1.276
895.790,1.269
896.031,1.266
896.271,1.270
896.512,1.281
896.752,1.290
896.992,1.292
897.232,1.285
897.472,1.281
897.712,1.287
897.952,1.302
898.191,1.309
898.431,1.307
898.670,1.304
898.910,1.306
899.149,1.315
899.388,1.322
899.627,1.324
899.866,1.314
900.105,1.299
900.343,1.292
900.582,1.296
900.820,1.304
901.059,1.315
901.297,1.316
901.535,1.301
901.773,1.279
902.011,1.260
902.249,1.252
902.487,1.251
902.725,1.252
902.963,1.261
903.200,1.264
903.438,1.266
903.675,1.268
903.912,1.275
904.150,1.286
904.387,1.289
904.624,1.281
904.861,1.265
905.098,1.258
905.334,1.263
905.571,1.267
905.808,1.269
906.045,1.274
906.281,1.281
906.518,1.286
906.754,1.292
906.990,1.297
907.227,1.295
907.463,1.284
907.699,1.277
907.935,1.283
908.171,1.289
908.407,1.288
908.643,1.283
908.879,1.280
909.115,1.285
909.350,1.289
909.586,1.292
909.822,1.291
910.057,1.297
910.293,1.312
910.528,1.324
910.764,1.323
910.999,1.317
911.235,1.310
911.470,1.311
911.706,1.306
911.941,1.304
912.176,1.295
912.412,1.286
912.647,1.286
912.882,1.291
913.117,1.294
913.352,1.287
913.588,1.275
913.823,1.269
914.058,1.266
914.293,1.268
914.528,1.263
914.763,1.260
914.999,1.259
915.234,1.265
915.469,1.268
915.704,1.265
915.939,1.259
916.174,1.256
916.409,1.260
916.645,1.272
916.880,1.284
917.115,1.290
917.350,1.287
917.586,1.284
917.821,1.284
918.056,1.293
918.292,1.299
918.527,1.299
918.763,1.290
918.998,1.281
919.234,1.287
919.469,1.300
919.705,1.305
919.940,1.300
920.176,1.297
920.412,1.306
920.648,1.308
920.884,1.298
921.120,1.286
921.356,1.283
921.592,1.284
921.828,1.283
922.065,1.286
922.301,1.293
922.537,1.300
922.774,1.302
923.011,1.292
923.247,1.280
923.484,1.279
923.721,1.289
923.958,1.296
924.195,1.293
924.433,1.285
924.670,1.274
924.908,1.263
925.145,1.262
925.383,1.272
925.621,1.284
925.859,1.291
926.097,1.294
926.335,1.293
926.574,1.293
926.813,1.295
927.051,1.294
927.290,1.292
927.529,1.299
927.769,1.316
928.008,1.326
928.248,1.312
928.487,1.295
928.727,1.287
928.967,1.296
929.208,1.306
929.448,1.307
929.689,1.301
929.930,1.290
930.171,1.282
930.413,1.277
930.654,1.275
930.896,1.272
931.138,1.266
931.380,1.260
931.623,1.264
931.865,1.274
932.108,1.286
932.352,1.292
932.595,1.296
932.839,1.298
933.083,1.295
933.327,1.286
933.571,1.274
933.816,1.274
934.061,1.279
934.307,1.285
934.552,1.280
934.798,1.275
935.045,1.275
935.291,1.280
935.538,1.286
935.785,1.294
936.033,1.302
936.281,1.307
936.529,1.308
936.777,1.302
937.026,1.294
937.275,1.285
937.525,1.278
937.775,1.274
938.025,1.270
938.276,1.269
938.527,1.270
938.778,1.268
939.030,1.263
939.282,1.259
939.535,1.257
939.788,1.262
940.041,1.262
940.295,1.263
940.550,1.268
940.804,1.279
941.059,1.287
941.315,1.283
941.571,1.270
941.828,1.258
942.085,1.256
942.342,1.261
942.600,1.264
942.858,1.262
943.117,1.258
943.377,1.256
943.636,1.252
943.897,1.252
944.158,1.258
944.419,1.270
944.681,1.277
944.944,1.281
945.207,1.286
945.470,1.295
945.734,1.301
945.999,1.309
946.264,1.315
946.530,1.319
946.797,1.316
947.064,1.310
947.331,1.302
947.600,1.291
947.869,1.281
948.138,1.274
948.408,1.272
948.679,1.275
948.950,1.281
949.222,1.278
949.495,1.269
949.768,1.265
950.043,1.273
