Wavelength (nm),Intensity W11.2,,C:/Users/Brend/Desktop/LED Spectras v2/Spectrometer Data (White).sp,,,W11.2,
379.792,2.667,,2018-06-15 11:12:38,,Integration Time,270 ms,
380.000,2.657,,Analyze Light,,Number of Scans to Average,25,
380.209,2.653,,,,Smoothing,1,
380.418,2.674
380.627,2.707
380.837,2.733
381.048,2.746
381.259,2.743
381.471,2.741
381.683,2.750
381.896,2.776
382.110,2.788
382.324,2.810
382.538,2.835
382.753,2.865
382.969,2.859
383.185,2.843
383.402,2.825
383.619,2.839
383.837,2.866
384.055,2.914
384.274,2.950
384.493,2.977
384.712,2.985
384.932,2.992
385.153,2.996
385.374,3.011
385.596,3.029
385.818,3.063
386.040,3.099
386.263,3.134
386.487,3.149
386.710,3.154
386.935,3.138
387.159,3.129
387.385,3.112
387.610,3.109
387.836,3.108
388.063,3.124
388.289,3.140
388.517,3.158
388.744,3.162
388.972,3.188
389.201,3.205
389.430,3.229
389.659,3.241
389.889,3.264
390.119,3.288
390.349,3.315
390.580,3.341
390.811,3.361
391.042,3.369
391.274,3.375
391.507,3.378
391.739,3.377
391.972,3.371
392.205,3.382
392.439,3.409
392.673,3.443
392.907,3.467
393.142,3.495
393.377,3.516
393.612,3.544
393.848,3.554
394.084,3.566
394.320,3.568
394.557,3.588
394.794,3.599
395.031,3.622
395.269,3.643
395.507,3.672
395.745,3.678
395.983,3.682
396.222,3.688
396.461,3.722
396.700,3.762
396.940,3.793
397.180,3.800
397.420,3.794
397.660,3.786
397.901,3.784
398.142,3.792
398.383,3.801
398.625,3.801
398.866,3.811
399.108,3.844
399.351,3.905
399.593,3.927
399.836,3.931
400.079,3.907
400.322,3.898
400.566,3.886
400.809,3.890
401.053,3.904
401.298,3.922
401.542,3.940
401.787,3.971
402.031,4.001
402.277,4.028
402.522,4.036
402.767,4.056
403.013,4.058
403.259,4.072
403.505,4.073
403.752,4.083
403.998,4.087
404.245,4.123
404.492,4.163
404.739,4.190
404.986,4.195
405.234,4.205
405.482,4.217
405.730,4.226
405.978,4.232
406.226,4.238
406.475,4.233
406.723,4.235
406.972,4.259
407.221,4.301
407.470,4.331
407.720,4.352
407.969,4.344
408.219,4.354
408.469,4.372
408.719,4.405
408.969,4.419
409.219,4.436
409.470,4.450
409.720,4.477
409.971,4.497
410.222,4.531
410.473,4.546
410.724,4.553
410.976,4.552
411.227,4.573
411.479,4.592
411.731,4.618
411.983,4.620
412.235,4.633
412.487,4.635
412.740,4.654
412.992,4.668
413.245,4.691
413.497,4.698
413.750,4.709
414.003,4.703
414.257,4.699
414.510,4.694
414.763,4.712
415.017,4.731
415.270,4.750
415.524,4.753
415.778,4.761
416.032,4.770
416.286,4.800
416.540,4.825
416.794,4.853
417.049,4.858
417.303,4.863
417.558,4.866
417.812,4.872
418.067,4.879
418.322,4.894
418.577,4.902
418.832,4.904
419.088,4.887
419.343,4.892
419.598,4.892
419.854,4.914
420.109,4.926
420.365,4.961
420.621,4.981
420.876,5.016
421.132,5.037
421.388,5.057
421.645,5.062
421.901,5.082
422.157,5.103
422.413,5.133
422.670,5.148
422.926,5.168
423.183,5.179
423.439,5.222
423.696,5.272
423.953,5.355
424.210,5.420
424.467,5.459
424.724,5.463
424.981,5.466
425.238,5.497
425.495,5.571
425.753,5.646
426.010,5.720
426.267,5.776
426.525,5.862
426.782,5.942
427.040,6.029
427.298,6.115
427.555,6.228
427.813,6.335
428.071,6.440
428.329,6.531
428.587,6.628
428.845,6.730
429.103,6.848
429.361,6.969
429.619,7.098
429.878,7.228
430.136,7.375
430.394,7.514
430.653,7.695
430.911,7.896
431.170,8.116
431.428,8.300
431.687,8.475
431.946,8.649
432.204,8.843
432.463,9.053
432.722,9.272
432.981,9.495
433.240,9.741
433.499,10.002
433.758,10.286
434.017,10.542
434.276,10.808
434.535,11.064
434.794,11.350
435.053,11.650
435.312,11.978
435.572,12.318
435.831,12.674
436.090,13.037
436.350,13.413
436.609,13.798
436.869,14.189
437.128,14.583
437.388,14.989
437.647,15.416
437.907,15.881
438.166,16.342
438.426,16.820
438.686,17.297
438.946,17.803
439.205,18.328
439.465,18.883
439.725,19.459
439.985,20.054
440.245,20.644
440.505,21.250
440.765,21.860
441.025,22.485
441.285,23.131
441.545,23.795
441.805,24.499
442.065,25.224
442.325,25.984
442.585,26.784
442.846,27.621
443.106,28.510
443.366,29.444
443.626,30.424
443.887,31.431
444.147,32.474
444.407,33.555
444.668,34.682
444.928,35.852
445.189,37.093
445.449,38.405
445.710,39.784
445.970,41.216
446.231,42.714
446.491,44.275
446.752,45.900
447.012,47.587
447.273,49.348
447.534,51.165
447.794,53.026
448.055,54.928
448.316,56.907
448.577,58.983
448.837,61.117
449.098,63.273
449.359,65.433
449.620,67.577
449.881,69.717
450.142,71.833
450.403,73.973
450.664,76.151
450.924,78.327
451.185,80.436
451.446,82.382
451.707,84.087
451.969,85.540
452.230,86.734
452.491,87.743
452.752,88.601
453.013,89.351
453.274,90.018
453.535,90.600
453.796,91.080
454.058,91.462
454.319,91.754
454.580,91.975
454.841,92.133
455.103,92.222
455.364,92.254
455.625,92.221
455.887,92.137
456.148,92.000
456.409,91.816
456.671,91.577
456.932,91.281
457.194,90.901
457.455,90.450
457.716,89.928
457.978,89.344
458.239,88.685
458.501,87.933
458.763,87.077
459.024,86.078
459.286,84.891
459.547,83.488
459.809,81.874
460.071,80.139
460.332,78.380
460.594,76.648
460.856,74.962
461.117,73.294
461.379,71.688
461.641,70.126
461.903,68.637
462.164,67.213
462.426,65.876
462.688,64.619
462.950,63.414
463.212,62.266
463.474,61.173
463.736,60.165
463.998,59.262
464.260,58.460
464.522,57.732
464.784,57.025
465.046,56.337
465.308,55.717
465.570,55.164
465.832,54.656
466.094,54.165
466.356,53.688
466.618,53.216
466.880,52.724
467.142,52.228
467.405,51.740
467.667,51.294
467.929,50.870
468.191,50.458
468.454,50.005
468.716,49.517
468.978,48.968
469.241,48.385
469.503,47.791
469.765,47.224
470.028,46.672
470.290,46.103
470.552,45.506
470.815,44.909
471.077,44.302
471.340,43.697
471.602,43.072
471.865,42.423
472.128,41.755
472.390,41.067
472.653,40.393
472.915,39.709
473.178,39.014
473.441,38.322
473.703,37.626
473.966,36.951
474.229,36.260
474.492,35.597
474.755,34.921
475.017,34.286
475.280,33.672
475.543,33.095
475.806,32.491
476.069,31.868
476.332,31.255
476.595,30.693
476.858,30.158
477.121,29.637
477.384,29.137
477.647,28.688
477.910,28.267
478.173,27.865
478.436,27.469
478.699,27.108
478.962,26.761
479.226,26.458
479.489,26.156
479.752,25.874
480.015,25.582
480.279,25.306
480.542,25.028
480.805,24.758
481.069,24.488
481.332,24.246
481.595,24.023
481.859,23.851
482.122,23.680
482.386,23.500
482.649,23.302
482.913,23.108
483.177,22.922
483.440,22.740
483.704,22.573
483.967,22.453
484.231,22.351
484.495,22.262
484.759,22.146
485.022,22.016
485.286,21.860
485.550,21.703
485.814,21.521
486.078,21.350
486.342,21.193
486.606,21.091
486.869,21.005
487.133,20.938
487.397,20.863
487.662,20.788
487.926,20.692
488.190,20.597
488.454,20.487
488.718,20.393
488.982,20.285
489.246,20.202
489.511,20.110
489.775,20.033
490.039,19.957
490.304,19.891
490.568,19.824
490.832,19.773
491.097,19.747
491.361,19.743
491.626,19.734
491.890,19.725
492.155,19.717
492.419,19.728
492.684,19.714
492.949,19.698
493.213,19.695
493.478,19.735
493.743,19.779
494.008,19.807
494.272,19.833
494.537,19.900
494.802,19.993
495.067,20.106
495.332,20.204
495.597,20.307
495.862,20.386
496.127,20.483
496.392,20.577
496.657,20.679
496.922,20.770
497.187,20.885
497.452,21.023
497.718,21.207
497.983,21.364
498.248,21.511
498.513,21.624
498.779,21.772
499.044,21.930
499.310,22.079
499.575,22.205
499.841,22.346
500.106,22.501
500.372,22.658
500.637,22.815
500.903,23.006
501.168,23.193
501.434,23.377
501.700,23.520
501.966,23.675
502.231,23.819
502.497,23.966
502.763,24.091
503.029,24.230
503.295,24.379
503.561,24.551
503.827,24.732
504.093,24.931
504.359,25.117
504.625,25.305
504.891,25.466
505.157,25.644
505.423,25.792
505.690,25.934
505.956,26.072
506.222,26.251
506.489,26.472
506.755,26.707
507.021,26.919
507.288,27.115
507.554,27.273
507.821,27.425
508.087,27.567
508.354,27.744
508.621,27.901
508.887,28.058
509.154,28.212
509.421,28.396
509.687,28.569
509.954,28.729
510.221,28.873
510.488,29.053
510.755,29.244
511.022,29.462
511.289,29.641
511.556,29.808
511.823,29.940
512.090,30.096
512.357,30.241
512.624,30.397
512.891,30.528
513.159,30.657
513.426,30.774
513.693,30.911
513.960,31.060
514.228,31.232
514.495,31.389
514.763,31.540
515.030,31.680
515.298,31.821
515.565,31.965
515.833,32.109
516.100,32.229
516.368,32.330
516.636,32.411
516.904,32.537
517.171,32.672
517.439,32.827
517.707,32.955
517.975,33.092
518.243,33.223
518.511,33.352
518.779,33.442
519.047,33.551
519.315,33.666
519.583,33.787
519.851,33.872
520.119,33.964
520.387,34.061
520.656,34.184
520.924,34.302
521.192,34.425
521.461,34.528
521.729,34.619
521.997,34.706
522.266,34.799
522.534,34.875
522.803,34.959
523.071,35.038
523.340,35.134
523.609,35.212
523.877,35.292
524.146,35.367
524.415,35.468
524.684,35.572
524.952,35.669
525.221,35.752
525.490,35.858
525.759,35.958
526.028,36.048
526.297,36.090
526.566,36.147
526.835,36.212
527.104,36.304
527.373,36.380
527.642,36.449
527.912,36.496
528.181,36.557
528.450,36.629
528.719,36.711
528.989,36.789
529.258,36.850
529.528,36.891
529.797,36.920
530.067,36.962
530.336,37.009
530.606,37.045
530.875,37.058
531.145,37.088
531.414,37.131
531.684,37.181
531.954,37.203
532.224,37.226
532.493,37.242
532.763,37.275
533.033,37.315
533.303,37.360
533.573,37.411
533.843,37.431
534.113,37.465
534.383,37.480
534.653,37.520
534.923,37.565
535.193,37.621
535.463,37.669
535.733,37.706
536.004,37.733
536.274,37.763
536.544,37.771
536.814,37.784
537.085,37.794
537.355,37.846
537.626,37.913
537.896,37.984
538.166,38.021
538.437,38.044
538.707,38.063
538.978,38.110
539.249,38.179
539.519,38.263
539.790,38.314
540.061,38.351
540.331,38.385
540.602,38.445
540.873,38.481
541.144,38.501
541.414,38.485
541.685,38.493
541.956,38.496
542.227,38.517
542.498,38.530
542.769,38.568
543.040,38.635
543.311,38.727
543.582,38.815
543.853,38.895
544.124,38.957
544.396,39.015
544.667,39.044
544.938,39.054
545.209,39.002
545.480,38.950
545.752,38.898
546.023,38.884
546.294,38.843
546.566,38.791
546.837,38.728
547.109,38.684
547.380,38.651
547.652,38.633
547.923,38.626
548.195,38.656
548.466,38.693
548.738,38.731
549.009,38.714
549.281,38.672
549.553,38.611
549.824,38.553
550.096,38.516
550.368,38.511
550.640,38.533
550.911,38.560
551.183,38.586
551.455,38.612
551.727,38.612
551.999,38.574
552.271,38.501
552.543,38.447
552.815,38.402
553.087,38.398
553.359,38.396
553.631,38.399
553.903,38.374
554.175,38.340
554.447,38.297
554.719,38.247
554.991,38.186
555.263,38.130
555.535,38.079
555.808,38.054
556.080,38.034
556.352,38.026
556.624,37.993
556.897,37.943
557.169,37.880
557.441,37.822
557.714,37.759
557.986,37.701
558.258,37.638
558.531,37.618
558.803,37.611
559.076,37.615
559.348,37.578
559.621,37.529
559.893,37.476
560.166,37.441
560.438,37.401
560.711,37.364
560.983,37.338
561.256,37.339
561.528,37.331
561.801,37.311
562.074,37.269
562.346,37.228
562.619,37.173
562.892,37.109
563.164,37.036
563.437,37.000
563.710,36.962
563.983,36.918
564.255,36.851
564.528,36.823
564.801,36.832
565.074,36.854
565.346,36.842
565.619,36.813
565.892,36.759
566.165,36.684
566.438,36.574
566.711,36.463
566.984,36.369
567.257,36.306
567.529,36.256
567.802,36.227
568.075,36.198
568.348,36.160
568.621,36.117
568.894,36.058
569.167,35.990
569.440,35.895
569.713,35.777
569.986,35.661
570.259,35.541
570.532,35.452
570.805,35.364
571.078,35.301
571.351,35.241
571.625,35.189
571.898,35.114
572.171,35.013
572.444,34.912
572.717,34.831
572.990,34.757
573.263,34.648
573.536,34.507
573.809,34.354
574.083,34.222
574.356,34.125
574.629,34.076
574.902,34.038
575.175,33.985
575.448,33.905
575.721,33.812
575.995,33.723
576.268,33.633
576.541,33.574
576.814,33.526
577.087,33.500
577.361,33.451
577.634,33.399
577.907,33.317
578.180,33.226
578.453,33.126
578.727,33.036
579.000,32.940
579.273,32.869
579.546,32.807
579.820,32.777
580.093,32.718
580.366,32.652
580.639,32.566
580.913,32.495
581.186,32.419
581.459,32.353
581.732,32.263
582.005,32.179
582.279,32.071
582.552,31.968
582.825,31.857
583.098,31.751
583.372,31.663
583.645,31.609
583.918,31.591
584.191,31.593
584.464,31.574
584.738,31.538
585.011,31.466
585.284,31.367
585.557,31.230
585.831,31.081
586.104,30.949
586.377,30.860
586.650,30.788
586.923,30.724
587.196,30.658
587.470,30.602
587.743,30.552
588.016,30.507
588.289,30.456
588.562,30.392
588.835,30.285
589.109,30.150
589.382,30.008
589.655,29.898
589.928,29.818
590.201,29.754
590.474,29.705
590.747,29.674
591.020,29.640
591.293,29.581
591.567,29.484
591.840,29.369
592.113,29.239
592.386,29.092
592.659,28.940
592.932,28.816
593.205,28.728
593.478,28.657
593.751,28.586
594.024,28.531
594.297,28.471
594.570,28.408
594.843,28.330
595.116,28.242
595.389,28.116
595.662,27.975
595.934,27.836
596.207,27.729
596.480,27.630
596.753,27.538
597.026,27.437
597.299,27.351
597.572,27.262
597.844,27.180
598.117,27.066
598.390,26.944
598.663,26.792
598.936,26.646
599.208,26.496
599.481,26.370
599.754,26.262
600.026,26.148
600.299,26.035
600.572,25.936
600.844,25.846
601.117,25.740
601.390,25.607
601.662,25.482
601.935,25.353
602.207,25.226
602.480,25.078
602.752,24.931
603.025,24.771
603.297,24.637
603.570,24.533
603.842,24.476
604.115,24.401
604.387,24.316
604.660,24.182
604.932,24.048
605.204,23.909
605.477,23.784
605.749,23.671
606.021,23.555
606.294,23.429
606.566,23.289
606.838,23.165
607.110,23.066
607.383,22.995
607.655,22.941
607.927,22.900
608.199,22.857
608.471,22.781
608.743,22.667
609.015,22.530
609.287,22.389
609.559,22.242
609.831,22.099
610.103,21.956
610.375,21.811
610.647,21.649
610.919,21.482
611.191,21.321
611.463,21.183
611.735,21.038
612.007,20.888
612.278,20.730
612.550,20.590
612.822,20.461
613.094,20.341
613.365,20.205
613.637,20.077
613.909,19.938
614.180,19.812
614.452,19.665
614.723,19.522
614.995,19.380
615.266,19.272
615.538,19.184
615.809,19.105
616.081,18.996
616.352,18.867
616.623,18.715
616.895,18.569
617.166,18.408
617.437,18.265
617.709,18.135
617.980,18.044
618.251,17.963
618.522,17.895
618.793,17.830
619.065,17.786
619.336,17.698
619.607,17.582
619.878,17.450
620.149,17.348
620.420,17.226
620.691,17.091
620.962,16.960
621.232,16.863
621.503,16.749
621.774,16.637
622.045,16.529
622.316,16.469
622.586,16.416
622.857,16.366
623.128,16.277
623.398,16.185
623.669,16.079
623.940,15.977
624.210,15.856
624.481,15.759
624.751,15.655
625.021,15.559
625.292,15.448
625.562,15.368
625.833,15.292
626.103,15.224
626.373,15.139
626.643,15.063
626.914,14.978
627.184,14.906
627.454,14.832
627.724,14.763
627.994,14.687
628.264,14.601
628.534,14.498
628.804,14.391
629.074,14.308
629.344,14.248
629.614,14.195
629.884,14.127
630.154,14.055
630.424,13.979
630.693,13.899
630.963,13.811
631.233,13.722
631.502,13.643
631.772,13.577
632.041,13.505
632.311,13.414
632.581,13.312
632.850,13.217
633.119,13.123
633.389,13.034
633.658,12.957
633.928,12.910
634.197,12.883
634.466,12.864
634.735,12.830
635.004,12.761
635.274,12.675
635.543,12.586
635.812,12.511
636.081,12.443
636.350,12.385
636.619,12.321
636.888,12.256
637.157,12.177
637.426,12.117
637.694,12.051
637.963,11.986
638.232,11.924
638.501,11.865
638.769,11.811
639.038,11.751
639.307,11.695
639.575,11.638
639.844,11.552
640.112,11.456
640.381,11.360
640.649,11.288
640.917,11.236
641.186,11.184
641.454,11.135
641.722,11.074
641.991,11.011
642.259,10.929
642.527,10.842
642.795,10.772
643.063,10.699
643.331,10.646
643.599,10.594
643.867,10.577
644.135,10.548
644.403,10.522
644.671,10.468
644.939,10.412
645.206,10.345
645.474,10.285
645.742,10.221
646.009,10.147
646.277,10.085
646.545,10.031
646.812,9.994
647.080,9.962
647.347,9.921
647.615,9.860
647.882,9.771
648.149,9.679
648.417,9.595
648.684,9.533
648.951,9.490
649.219,9.451
649.486,9.396
649.753,9.329
650.020,9.251
650.287,9.173
650.554,9.091
650.821,9.015
651.088,8.940
651.355,8.893
651.622,8.844
651.889,8.804
652.155,8.745
652.422,8.697
652.689,8.663
652.956,8.621
653.222,8.574
653.489,8.535
653.755,8.486
654.022,8.415
654.288,8.315
654.555,8.229
654.821,8.171
655.088,8.130
655.354,8.092
655.620,8.053
655.887,8.002
656.153,7.946
656.419,7.880
656.685,7.817
656.951,7.756
657.217,7.698
657.483,7.637
657.749,7.582
658.015,7.533
658.281,7.488
658.547,7.430
658.813,7.363
659.079,7.290
659.345,7.214
659.610,7.146
659.876,7.090
660.142,7.055
660.407,7.021
660.673,6.986
660.939,6.948
661.204,6.900
661.470,6.846
661.735,6.793
662.000,6.759
662.266,6.719
662.531,6.670
662.796,6.614
663.062,6.557
663.327,6.495
663.592,6.440
663.857,6.395
664.122,6.360
664.388,6.317
664.653,6.280
664.918,6.250
665.183,6.210
665.448,6.176
665.712,6.144
665.977,6.119
666.242,6.085
666.507,6.013
666.772,5.942
667.037,5.868
667.301,5.826
667.566,5.781
667.831,5.747
668.095,5.706
668.360,5.674
668.624,5.623
668.889,5.601
669.153,5.571
669.418,5.550
669.682,5.513
669.946,5.486
670.211,5.475
670.475,5.454
670.739,5.431
671.004,5.410
671.268,5.413
671.532,5.427
671.796,5.364
672.060,5.278
672.324,5.185
672.588,5.160
672.852,5.154
673.116,5.182
673.380,5.213
673.644,5.149
673.908,5.040
674.172,4.927
674.436,4.901
674.700,4.884
674.963,4.862
675.227,4.831
675.491,4.783
675.754,4.737
676.018,4.684
676.282,4.651
676.545,4.607
676.809,4.559
677.072,4.505
677.336,4.457
677.599,4.429
677.863,4.402
678.126,4.383
678.389,4.376
678.653,4.369
678.916,4.346
679.179,4.293
679.442,4.244
679.706,4.213
679.969,4.193
680.232,4.176
680.495,4.166
680.758,4.157
681.021,4.129
681.284,4.078
681.547,4.031
681.810,4.014
682.073,4.018
682.336,4.016
682.599,3.994
682.862,3.966
683.125,3.948
683.388,3.938
683.651,3.920
683.913,3.898
684.176,3.854
684.439,3.801
684.702,3.737
684.964,3.696
685.227,3.676
685.490,3.677
685.752,3.686
686.015,3.676
686.277,3.650
686.540,3.608
686.802,3.559
687.065,3.530
687.327,3.519
687.590,3.516
687.852,3.496
688.115,3.454
688.377,3.422
688.639,3.403
688.902,3.394
689.164,3.382
689.426,3.377
689.689,3.369
689.951,3.348
690.213,3.319
690.475,3.290
690.737,3.265
691.000,3.238
691.262,3.216
691.524,3.207
691.786,3.207
692.048,3.211
692.310,3.195
692.572,3.151
692.834,3.101
693.096,3.070
693.358,3.067
693.620,3.076
693.882,3.085
694.144,3.075
694.406,3.044
694.668,3.010
694.930,2.979
695.192,2.952
695.453,2.930
695.715,2.918
695.977,2.901
696.239,2.872
696.501,2.849
696.762,2.844
697.024,2.842
697.286,2.820
697.548,2.798
697.809,2.780
698.071,2.764
698.333,2.744
698.594,2.721
698.856,2.717
699.118,2.709
699.379,2.700
699.641,2.688
699.902,2.682
700.164,2.669
700.426,2.644
700.687,2.611
700.949,2.596
701.210,2.584
701.472,2.576
701.733,2.552
701.995,2.540
702.256,2.530
702.518,2.521
702.779,2.501
703.041,2.505
703.302,2.523
703.563,2.520
703.825,2.489
704.086,2.454
704.348,2.437
704.609,2.433
704.871,2.439
705.132,2.454
705.393,2.442
705.655,2.421
705.916,2.402
706.177,2.399
706.439,2.393
706.700,2.379
706.961,2.363
707.223,2.351
707.484,2.323
707.745,2.293
708.007,2.255
708.268,2.219
708.529,2.184
708.790,2.147
709.052,2.124
709.313,2.117
709.574,2.117
709.835,2.112
710.097,2.090
710.358,2.053
710.619,2.018
710.881,1.988
711.142,1.972
711.403,1.951
711.664,1.940
711.926,1.917
712.187,1.909
712.448,1.907
712.709,1.920
712.970,1.931
713.232,1.932
713.493,1.928
713.754,1.919
714.015,1.916
714.277,1.921
714.538,1.931
714.799,1.947
715.060,1.949
715.322,1.942
715.583,1.917
715.844,1.893
716.105,1.867
716.367,1.846
716.628,1.839
716.889,1.838
717.150,1.823
717.411,1.796
717.673,1.776
717.934,1.768
718.195,1.766
718.457,1.753
718.718,1.731
718.979,1.718
719.240,1.720
719.502,1.737
719.763,1.749
720.024,1.752
720.286,1.751
720.547,1.737
720.808,1.718
721.069,1.703
721.331,1.707
721.592,1.726
721.853,1.737
722.115,1.737
722.376,1.731
722.638,1.721
722.899,1.712
723.160,1.692
723.422,1.672
723.683,1.655
723.944,1.659
724.206,1.664
724.467,1.667
724.729,1.663
724.990,1.672
725.252,1.682
725.513,1.672
725.775,1.643
726.036,1.619
726.298,1.615
726.559,1.629
726.821,1.632
727.082,1.633
727.344,1.625
727.605,1.622
727.867,1.616
728.128,1.620
728.390,1.625
728.652,1.643
728.913,1.664
729.175,1.678
729.436,1.678
729.698,1.672
729.960,1.660
730.221,1.648
730.483,1.627
730.745,1.620
731.007,1.616
731.268,1.614
731.530,1.614
731.792,1.616
732.054,1.626
732.315,1.636
732.577,1.642
732.839,1.631
733.101,1.614
733.363,1.599
733.625,1.593
733.887,1.595
734.149,1.597
734.411,1.608
734.673,1.619
734.935,1.625
735.197,1.620
735.459,1.622
735.721,1.628
735.983,1.627
736.245,1.604
736.507,1.596
736.769,1.603
737.031,1.618
737.293,1.609
737.555,1.590
737.818,1.573
738.080,1.564
738.342,1.562
738.604,1.560
738.867,1.559
739.129,1.556
739.391,1.557
739.654,1.564
739.916,1.571
740.178,1.584
740.441,1.604
740.703,1.618
740.966,1.611
741.228,1.592
741.491,1.575
741.753,1.575
742.016,1.572
742.278,1.576
742.541,1.580
742.804,1.588
743.066,1.600
743.329,1.605
743.592,1.599
743.854,1.595
744.117,1.598
744.380,1.608
744.643,1.603
744.905,1.587
745.168,1.578
745.431,1.571
745.694,1.565
745.957,1.554
746.220,1.544
746.483,1.540
746.746,1.541
747.009,1.561
747.272,1.596
747.535,1.626
747.798,1.631
748.061,1.606
748.324,1.571
748.588,1.548
748.851,1.543
749.114,1.544
749.377,1.551
749.641,1.554
749.904,1.569
750.167,1.589
750.431,1.606
750.694,1.620
750.958,1.624
751.221,1.611
751.485,1.574
751.748,1.546
752.012,1.551
752.275,1.588
752.539,1.608
752.803,1.599
753.066,1.571
753.330,1.549
753.594,1.537
753.857,1.534
754.121,1.551
754.385,1.573
754.649,1.592
754.913,1.596
755.177,1.603
755.441,1.591
755.705,1.565
755.969,1.534
756.233,1.536
756.497,1.552
756.761,1.558
757.025,1.544
757.289,1.535
757.553,1.533
757.818,1.544
758.082,1.552
758.346,1.558
758.610,1.564
758.875,1.568
759.139,1.569
759.404,1.561
759.668,1.551
759.932,1.555
760.197,1.569
760.462,1.577
760.726,1.570
760.991,1.562
761.255,1.559
761.520,1.559
761.785,1.545
762.049,1.517
762.314,1.494
762.579,1.499
762.844,1.529
763.109,1.554
763.374,1.550
763.639,1.538
763.903,1.521
764.168,1.509
764.433,1.505
764.699,1.525
764.964,1.544
765.229,1.541
765.494,1.516
765.759,1.498
766.024,1.491
766.290,1.501
766.555,1.518
766.820,1.537
767.086,1.546
767.351,1.544
767.616,1.534
767.882,1.518
768.147,1.505
768.413,1.495
768.678,1.487
768.944,1.487
769.209,1.502
769.475,1.529
769.741,1.554
770.006,1.570
770.272,1.577
770.538,1.573
770.804,1.563
771.070,1.554
771.335,1.557
771.601,1.571
771.867,1.576
772.133,1.573
772.399,1.560
772.665,1.540
772.931,1.533
773.197,1.542
773.464,1.563
773.730,1.579
773.996,1.580
774.262,1.583
774.528,1.573
774.795,1.572
775.061,1.577
775.327,1.580
775.594,1.562
775.860,1.530
776.126,1.491
776.393,1.468
776.659,1.459
776.926,1.459
777.193,1.465
777.459,1.475
777.726,1.479
777.992,1.482
778.259,1.473
778.526,1.482
778.793,1.486
779.059,1.499
779.326,1.515
779.593,1.530
779.860,1.549
780.127,1.545
780.394,1.538
780.661,1.527
780.928,1.513
781.195,1.494
781.462,1.473
781.729,1.469
781.996,1.472
782.263,1.479
782.530,1.500
782.797,1.516
783.064,1.511
783.332,1.490
783.599,1.469
783.866,1.468
784.134,1.467
784.401,1.469
784.668,1.473
784.936,1.480
785.203,1.475
785.470,1.458
785.738,1.445
786.005,1.443
786.273,1.443
786.541,1.436
786.808,1.438
787.076,1.446
787.343,1.458
787.611,1.475
787.879,1.495
788.146,1.501
788.414,1.507
788.682,1.497
788.950,1.498
789.217,1.496
789.485,1.516
789.753,1.529
790.021,1.510
790.289,1.469
790.557,1.432
790.825,1.425
791.093,1.439
791.361,1.469
791.629,1.497
791.897,1.515
792.165,1.511
792.433,1.496
792.701,1.466
792.969,1.440
793.237,1.426
793.505,1.440
793.773,1.459
794.042,1.462
794.310,1.452
794.578,1.447
794.846,1.447
795.115,1.447
795.383,1.447
795.651,1.464
795.920,1.477
796.188,1.477
796.456,1.476
796.725,1.478
796.993,1.498
797.261,1.512
797.530,1.511
797.798,1.498
798.067,1.501
798.335,1.519
798.604,1.517
798.872,1.487
799.141,1.453
799.409,1.442
799.678,1.447
799.946,1.459
800.215,1.467
800.483,1.464
800.752,1.460
801.020,1.452
801.289,1.448
801.558,1.444
801.826,1.448
802.095,1.445
802.363,1.446
802.632,1.452
802.901,1.467
803.169,1.477
803.438,1.470
803.707,1.452
803.976,1.430
804.244,1.425
804.513,1.429
804.782,1.425
805.050,1.423
805.319,1.434
805.588,1.458
805.857,1.477
806.125,1.482
806.394,1.478
806.663,1.462
806.931,1.444
807.200,1.433
807.469,1.434
807.738,1.434
808.006,1.433
808.275,1.441
808.544,1.465
808.813,1.490
809.082,1.497
809.350,1.485
809.619,1.471
809.888,1.456
810.157,1.447
810.425,1.440
810.694,1.441
810.963,1.449
811.232,1.443
811.500,1.429
811.769,1.411
812.038,1.413
812.306,1.430
812.575,1.452
812.844,1.464
813.113,1.469
813.381,1.460
813.650,1.462
813.919,1.473
814.187,1.494
814.456,1.504
814.725,1.505
814.993,1.491
815.262,1.480
815.531,1.472
815.799,1.472
816.068,1.462
816.336,1.444
816.605,1.438
816.873,1.443
817.142,1.460
817.411,1.477
817.679,1.488
817.948,1.505
818.216,1.532
818.485,1.588
818.753,1.630
819.021,1.598
819.290,1.518
819.558,1.451
819.827,1.450
820.095,1.472
820.363,1.483
820.632,1.480
820.900,1.474
821.168,1.479
821.437,1.493
821.705,1.499
821.973,1.500
822.241,1.496
822.509,1.493
822.777,1.477
823.046,1.468
823.314,1.474
823.582,1.492
823.850,1.500
824.118,1.506
824.386,1.496
824.654,1.468
824.922,1.434
825.190,1.414
825.457,1.431
825.725,1.455
825.993,1.459
826.261,1.451
826.529,1.442
826.796,1.445
827.064,1.441
827.332,1.436
827.599,1.441
827.867,1.467
828.134,1.480
828.402,1.466
828.669,1.441
828.937,1.428
829.204,1.450
829.471,1.491
829.739,1.517
830.006,1.517
830.273,1.491
830.540,1.463
830.807,1.438
831.075,1.434
831.342,1.451
831.609,1.465
831.876,1.474
832.142,1.480
832.409,1.486
832.676,1.477
832.943,1.453
833.210,1.433
833.476,1.427
833.743,1.439
834.010,1.452
834.276,1.447
834.543,1.434
834.809,1.430
835.076,1.438
835.342,1.443
835.608,1.460
835.874,1.474
836.141,1.475
836.407,1.464
836.673,1.446
836.939,1.443
837.205,1.439
837.471,1.440
837.737,1.442
838.002,1.440
838.268,1.441
838.534,1.450
838.799,1.456
839.065,1.465
839.330,1.466
839.596,1.466
839.861,1.469
840.127,1.478
840.392,1.489
840.657,1.495
840.922,1.505
841.187,1.512
841.452,1.511
841.717,1.510
841.982,1.497
842.247,1.475
842.511,1.449
842.776,1.443
843.041,1.448
843.305,1.441
843.570,1.431
843.834,1.425
844.098,1.422
844.362,1.422
844.627,1.419
844.891,1.422
845.155,1.432
845.419,1.447
845.682,1.460
845.946,1.463
846.210,1.462
846.474,1.456
846.737,1.459
847.001,1.456
847.264,1.443
847.527,1.431
847.790,1.427
848.054,1.435
848.317,1.429
848.580,1.425
848.843,1.426
849.105,1.450
849.368,1.482
849.631,1.500
849.893,1.508
850.156,1.518
850.418,1.517
850.680,1.488
850.943,1.456
851.205,1.451
851.467,1.454
851.729,1.445
851.991,1.437
852.252,1.449
852.514,1.474
852.776,1.489
853.037,1.504
853.298,1.501
853.560,1.483
853.821,1.450
854.082,1.420
854.343,1.420
854.604,1.448
854.865,1.499
855.126,1.533
855.386,1.549
855.647,1.542
855.907,1.523
856.168,1.491
856.428,1.460
856.688,1.446
856.948,1.426
857.208,1.409
857.468,1.405
857.727,1.421
857.987,1.437
858.247,1.448
858.506,1.464
858.765,1.471
859.024,1.458
859.284,1.438
859.543,1.423
859.801,1.419
860.060,1.424
860.319,1.451
860.577,1.480
860.836,1.495
861.094,1.496
861.352,1.490
861.611,1.475
861.869,1.453
862.127,1.440
862.384,1.444
862.642,1.451
862.900,1.467
863.157,1.476
863.414,1.470
863.672,1.444
863.929,1.411
864.186,1.404
864.443,1.414
864.699,1.428
864.956,1.435
865.212,1.419
865.469,1.411
865.725,1.420
865.981,1.446
866.237,1.462
866.493,1.465
866.749,1.450
867.005,1.440
867.260,1.425
867.516,1.413
867.771,1.402
868.026,1.402
868.282,1.423
868.536,1.438
868.791,1.437
869.046,1.418
869.301,1.404
869.555,1.408
869.809,1.430
870.064,1.453
870.318,1.469
870.572,1.477
870.826,1.456
871.079,1.435
871.333,1.419
871.586,1.429
871.840,1.435
872.093,1.432
872.346,1.442
872.599,1.468
872.852,1.505
873.105,1.520
873.357,1.510
873.610,1.481
873.862,1.474
874.114,1.480
874.366,1.490
874.618,1.480
874.870,1.451
875.121,1.420
875.373,1.405
875.624,1.411
875.876,1.419
876.127,1.422
876.378,1.420
876.629,1.417
876.879,1.420
877.130,1.427
877.381,1.425
877.631,1.408
877.881,1.393
878.131,1.404
878.381,1.436
878.631,1.479
878.881,1.500
879.130,1.501
879.380,1.481
879.629,1.463
879.878,1.447
880.127,1.439
880.376,1.441
880.625,1.460
880.873,1.482
881.122,1.496
881.370,1.495
881.618,1.477
881.866,1.455
882.114,1.433
882.362,1.427
882.610,1.435
882.857,1.445
883.105,1.451
883.352,1.437
883.599,1.423
883.846,1.410
884.093,1.407
884.340,1.417
884.586,1.438
884.833,1.454
885.079,1.460
885.325,1.448
885.571,1.442
885.817,1.437
886.063,1.446
886.309,1.454
886.554,1.475
886.800,1.492
887.045,1.502
887.290,1.480
887.535,1.450
887.780,1.435
888.025,1.449
888.270,1.482
888.514,1.512
888.758,1.516
889.003,1.495
889.247,1.455
889.491,1.446
889.735,1.458
889.978,1.483
890.222,1.485
890.465,1.475
890.709,1.459
890.952,1.442
891.195,1.428
891.438,1.422
891.681,1.414
891.923,1.416
892.166,1.424
892.408,1.430
892.651,1.421
892.893,1.406
893.135,1.401
893.377,1.408
893.619,1.418
893.861,1.433
894.102,1.448
894.344,1.475
894.585,1.509
894.826,1.527
895.067,1.510
895.308,1.479
895.549,1.448
895.790,1.430
896.031,1.415
896.271,1.423
896.512,1.451
896.752,1.474
896.992,1.475
897.232,1.453
897.472,1.441
897.712,1.455
897.952,1.486
898.191,1.495
898.431,1.485
898.670,1.484
898.910,1.497
899.149,1.525
899.388,1.540
899.627,1.535
899.866,1.508
900.105,1.471
900.343,1.454
900.582,1.454
900.820,1.472
901.059,1.505
901.297,1.526
901.535,1.508
901.773,1.464
902.011,1.422
902.249,1.394
902.487,1.381
902.725,1.384
902.963,1.406
903.200,1.419
903.438,1.421
903.675,1.424
903.912,1.436
904.150,1.456
904.387,1.463
904.624,1.448
904.861,1.427
905.098,1.415
905.334,1.422
905.571,1.420
905.808,1.423
906.045,1.436
906.281,1.454
906.518,1.459
906.754,1.463
906.990,1.465
907.227,1.465
907.463,1.446
907.699,1.434
907.935,1.443
908.171,1.465
908.407,1.469
908.643,1.460
908.879,1.451
909.115,1.460
909.350,1.470
909.586,1.471
909.822,1.469
910.057,1.485
910.293,1.525
910.528,1.552
910.764,1.547
910.999,1.536
911.235,1.518
911.470,1.521
911.706,1.509
911.941,1.505
912.176,1.487
912.412,1.464
912.647,1.454
912.882,1.457
913.117,1.461
913.352,1.453
913.588,1.438
913.823,1.433
914.058,1.433
914.293,1.438
914.528,1.430
914.763,1.423
914.999,1.420
915.234,1.425
915.469,1.433
915.704,1.430
915.939,1.423
916.174,1.414
916.409,1.419
916.645,1.445
916.880,1.468
917.115,1.482
917.350,1.473
917.586,1.465
917.821,1.458
918.056,1.465
918.292,1.475
918.527,1.473
918.763,1.460
918.998,1.446
919.234,1.464
919.469,1.497
919.705,1.514
919.940,1.501
920.176,1.480
920.412,1.482
920.648,1.484
920.884,1.475
921.120,1.460
921.356,1.453
921.592,1.451
921.828,1.444
922.065,1.446
922.301,1.464
922.537,1.492
922.774,1.499
923.011,1.477
923.247,1.443
923.484,1.436
923.721,1.451
923.958,1.470
924.195,1.467
924.433,1.456
924.670,1.435
924.908,1.419
925.145,1.421
925.383,1.438
925.621,1.453
925.859,1.460
926.097,1.466
926.335,1.470
926.574,1.480
926.813,1.488
927.051,1.491
927.290,1.486
927.529,1.499
927.769,1.533
928.008,1.550
928.248,1.513
928.487,1.468
928.727,1.448
928.967,1.475
929.208,1.498
929.448,1.501
929.689,1.482
929.930,1.457
930.171,1.436
930.413,1.428
930.654,1.425
930.896,1.416
931.138,1.402
931.380,1.393
931.623,1.408
931.865,1.431
932.108,1.458
932.352,1.473
932.595,1.482
932.839,1.489
933.083,1.478
933.327,1.460
933.571,1.438
933.816,1.443
934.061,1.453
934.307,1.456
934.552,1.439
934.798,1.431
935.045,1.435
935.291,1.445
935.538,1.451
935.785,1.459
936.033,1.473
936.281,1.486
936.529,1.495
936.777,1.492
937.026,1.477
937.275,1.461
937.525,1.445
937.775,1.436
938.025,1.427
938.276,1.420
938.527,1.418
938.778,1.416
939.030,1.413
939.282,1.411
939.535,1.414
939.788,1.428
940.041,1.428
940.295,1.422
940.550,1.424
940.804,1.444
941.059,1.462
941.315,1.453
941.571,1.428
941.828,1.411
942.085,1.412
942.342,1.424
942.600,1.429
942.858,1.428
943.117,1.417
943.377,1.406
943.636,1.393
943.897,1.389
944.158,1.397
944.419,1.414
944.681,1.425
944.944,1.436
945.207,1.447
945.470,1.460
945.734,1.470
945.999,1.487
946.264,1.513
946.530,1.524
946.797,1.516
947.064,1.494
947.331,1.477
947.600,1.456
947.869,1.440
948.138,1.428
948.408,1.424
948.679,1.425
948.950,1.432
949.222,1.429
949.495,1.423
949.768,1.422
950.043,1.438
