Wavelength (nm),Intensity W28.1,,C:/Users/Brend/Desktop/LED Spectras v2/Spectrometer Data (White).sp,,,W28.1,
379.792,2.425,,2018-06-15 14:25:37,,Integration Time,210 ms,
380.000,2.418,,Analyze Light,,Number of Scans to Average,25,
380.209,2.415,,,,Smoothing,1,
380.418,2.439
380.627,2.466
380.837,2.491
381.048,2.498
381.259,2.497
381.471,2.491
381.683,2.497
381.896,2.514
382.110,2.524
382.324,2.543
382.538,2.566
382.753,2.591
382.969,2.585
383.185,2.569
383.402,2.555
383.619,2.566
383.837,2.585
384.055,2.616
384.274,2.643
384.493,2.664
384.712,2.674
384.932,2.682
385.153,2.689
385.374,2.703
385.596,2.716
385.818,2.741
386.040,2.767
386.263,2.797
386.487,2.807
386.710,2.810
386.935,2.794
387.159,2.787
387.385,2.775
387.610,2.775
387.836,2.781
388.063,2.798
388.289,2.816
388.517,2.828
388.744,2.829
388.972,2.845
389.201,2.859
389.430,2.882
389.659,2.895
389.889,2.916
390.119,2.933
390.349,2.947
390.580,2.960
390.811,2.971
391.042,2.977
391.274,2.986
391.507,2.996
391.739,2.995
391.972,2.983
392.205,2.987
392.439,3.011
392.673,3.044
392.907,3.067
393.142,3.096
393.377,3.118
393.612,3.147
393.848,3.157
394.084,3.169
394.320,3.172
394.557,3.189
394.794,3.202
395.031,3.222
395.269,3.237
395.507,3.257
395.745,3.263
395.983,3.273
396.222,3.280
396.461,3.308
396.700,3.340
396.940,3.370
397.180,3.383
397.420,3.383
397.660,3.379
397.901,3.376
398.142,3.380
398.383,3.382
398.625,3.382
398.866,3.396
399.108,3.430
399.351,3.483
399.593,3.502
399.836,3.506
400.079,3.487
400.322,3.478
400.566,3.467
400.809,3.469
401.053,3.482
401.298,3.504
401.542,3.526
401.787,3.555
402.031,3.579
402.277,3.603
402.522,3.612
402.767,3.625
403.013,3.620
403.259,3.625
403.505,3.622
403.752,3.626
403.998,3.628
404.245,3.653
404.492,3.681
404.739,3.704
404.986,3.709
405.234,3.719
405.482,3.723
405.730,3.725
405.978,3.731
406.226,3.741
406.475,3.743
406.723,3.749
406.972,3.767
407.221,3.802
407.470,3.822
407.720,3.838
407.969,3.832
408.219,3.849
408.469,3.871
408.719,3.903
408.969,3.917
409.219,3.930
409.470,3.944
409.720,3.969
409.971,3.989
410.222,4.017
410.473,4.031
410.724,4.038
410.976,4.041
411.227,4.061
411.479,4.078
411.731,4.095
411.983,4.094
412.235,4.098
412.487,4.094
412.740,4.107
412.992,4.122
413.245,4.147
413.497,4.155
413.750,4.163
414.003,4.159
414.257,4.163
414.510,4.168
414.763,4.191
415.017,4.213
415.270,4.232
415.524,4.233
415.778,4.238
416.032,4.249
416.286,4.286
416.540,4.311
416.794,4.337
417.049,4.342
417.303,4.358
417.558,4.370
417.812,4.380
418.067,4.386
418.322,4.400
418.577,4.412
418.832,4.420
419.088,4.407
419.343,4.415
419.598,4.412
419.854,4.429
420.109,4.434
420.365,4.467
420.621,4.485
420.876,4.509
421.132,4.515
421.388,4.526
421.645,4.530
421.901,4.548
422.157,4.565
422.413,4.591
422.670,4.605
422.926,4.625
423.183,4.627
423.439,4.653
423.696,4.680
423.953,4.744
424.210,4.794
424.467,4.827
424.724,4.833
424.981,4.833
425.238,4.851
425.495,4.895
425.753,4.940
426.010,4.985
426.267,5.016
426.525,5.073
426.782,5.126
427.040,5.192
427.298,5.256
427.555,5.337
427.813,5.405
428.071,5.469
428.329,5.524
428.587,5.589
428.845,5.658
429.103,5.741
429.361,5.822
429.619,5.911
429.878,5.995
430.136,6.096
430.394,6.196
430.653,6.331
430.911,6.473
431.170,6.620
431.428,6.741
431.687,6.865
431.946,6.985
432.204,7.127
432.463,7.278
432.722,7.439
432.981,7.593
433.240,7.763
433.499,7.946
433.758,8.150
434.017,8.333
434.276,8.521
434.535,8.706
434.794,8.920
435.053,9.148
435.312,9.393
435.572,9.636
435.831,9.891
436.090,10.159
436.350,10.447
436.609,10.748
436.869,11.057
437.128,11.368
437.388,11.678
437.647,11.999
437.907,12.355
438.166,12.722
438.426,13.096
438.686,13.464
438.946,13.860
439.205,14.274
439.465,14.713
439.725,15.167
439.985,15.640
440.245,16.100
440.505,16.569
440.765,17.043
441.025,17.529
441.285,18.019
441.545,18.534
441.805,19.066
442.065,19.611
442.325,20.163
442.585,20.753
442.846,21.376
443.106,22.035
443.366,22.709
443.626,23.395
443.887,24.091
444.147,24.825
444.407,25.574
444.668,26.362
444.928,27.171
445.189,28.041
445.449,28.944
445.710,29.875
445.970,30.837
446.231,31.855
446.491,32.938
446.752,34.076
447.012,35.259
447.273,36.509
447.534,37.787
447.794,39.091
448.055,40.430
448.316,41.867
448.577,43.396
448.837,44.996
449.098,46.661
449.359,48.391
449.620,50.164
449.881,51.972
450.142,53.813
450.403,55.727
450.664,57.733
450.924,59.828
451.185,61.986
451.446,64.174
451.707,66.372
451.969,68.602
452.230,70.819
452.491,73.050
452.752,75.231
453.013,77.388
453.274,79.493
453.535,81.506
453.796,83.341
454.058,84.900
454.319,86.174
454.580,87.220
454.841,88.111
455.103,88.901
455.364,89.589
455.625,90.209
455.887,90.750
456.148,91.210
456.409,91.573
456.671,91.842
456.932,92.047
457.194,92.190
457.455,92.286
457.716,92.330
457.978,92.324
458.239,92.263
458.501,92.158
458.763,92.005
459.024,91.814
459.286,91.572
459.547,91.277
459.809,90.894
460.071,90.437
460.332,89.919
460.594,89.352
460.856,88.734
461.117,88.030
461.379,87.270
461.641,86.402
461.903,85.411
462.164,84.260
462.426,82.964
462.688,81.572
462.950,80.118
463.212,78.652
463.474,77.192
463.736,75.765
463.998,74.407
464.260,73.128
464.522,71.929
464.784,70.772
465.046,69.664
465.308,68.635
465.570,67.663
465.832,66.748
466.094,65.863
466.356,65.044
466.618,64.242
466.880,63.458
467.142,62.679
467.405,61.954
467.667,61.289
467.929,60.683
468.191,60.114
468.454,59.537
468.716,58.959
468.978,58.357
469.241,57.740
469.503,57.124
469.765,56.530
470.028,55.962
470.290,55.393
470.552,54.829
470.815,54.280
471.077,53.724
471.340,53.160
471.602,52.577
471.865,51.972
472.128,51.364
472.390,50.766
472.653,50.169
472.915,49.559
473.178,48.913
473.441,48.258
473.703,47.560
473.966,46.844
474.229,46.108
474.492,45.378
474.755,44.636
475.017,43.905
475.280,43.186
475.543,42.491
475.806,41.778
476.069,41.045
476.332,40.314
476.595,39.606
476.858,38.921
477.121,38.244
477.384,37.566
477.647,36.915
477.910,36.281
478.173,35.679
478.436,35.070
478.699,34.480
478.962,33.900
479.226,33.383
479.489,32.874
479.752,32.390
480.015,31.895
480.279,31.429
480.542,30.980
480.805,30.548
481.069,30.121
481.332,29.708
481.595,29.326
481.859,29.007
482.122,28.699
482.386,28.387
482.649,28.059
482.913,27.748
483.177,27.450
483.440,27.166
483.704,26.898
483.967,26.660
484.231,26.445
484.495,26.249
484.759,26.062
485.022,25.860
485.286,25.647
485.550,25.437
485.814,25.217
486.078,25.001
486.342,24.797
486.606,24.646
486.869,24.515
487.133,24.393
487.397,24.271
487.662,24.144
487.926,24.002
488.190,23.854
488.454,23.704
488.718,23.565
488.982,23.411
489.246,23.272
489.511,23.126
489.775,23.000
490.039,22.872
490.304,22.746
490.568,22.613
490.832,22.497
491.097,22.404
491.361,22.329
491.626,22.249
491.890,22.171
492.155,22.092
492.419,22.030
492.684,21.955
492.949,21.874
493.213,21.800
493.478,21.756
493.743,21.717
494.008,21.665
494.272,21.619
494.537,21.606
494.802,21.612
495.067,21.636
495.332,21.662
495.597,21.699
495.862,21.727
496.127,21.761
496.392,21.789
496.657,21.813
496.922,21.838
497.187,21.890
497.452,21.967
497.718,22.082
497.983,22.193
498.248,22.292
498.513,22.361
498.779,22.445
499.044,22.542
499.310,22.632
499.575,22.691
499.841,22.759
500.106,22.850
500.372,22.959
500.637,23.070
500.903,23.214
501.168,23.364
501.434,23.502
501.700,23.604
501.966,23.706
502.231,23.811
502.497,23.927
502.763,24.034
503.029,24.149
503.295,24.274
503.561,24.405
503.827,24.544
504.093,24.688
504.359,24.829
504.625,24.985
504.891,25.133
505.157,25.300
505.423,25.435
505.690,25.561
505.956,25.677
506.222,25.819
506.489,25.986
506.755,26.169
507.021,26.336
507.288,26.497
507.554,26.636
507.821,26.787
508.087,26.924
508.354,27.087
508.621,27.233
508.887,27.385
509.154,27.517
509.421,27.657
509.687,27.774
509.954,27.897
510.221,28.032
510.488,28.203
510.755,28.365
511.022,28.515
511.289,28.632
511.556,28.752
511.823,28.871
512.090,29.014
512.357,29.142
512.624,29.270
512.891,29.392
513.159,29.512
513.426,29.628
513.693,29.750
513.960,29.882
514.228,30.022
514.495,30.150
514.763,30.281
515.030,30.414
515.298,30.548
515.565,30.688
515.833,30.819
516.100,30.930
516.368,31.027
516.636,31.095
516.904,31.184
517.171,31.264
517.439,31.376
517.707,31.481
517.975,31.610
518.243,31.733
518.511,31.852
518.779,31.927
519.047,32.021
519.315,32.129
519.583,32.243
519.851,32.318
520.119,32.383
520.387,32.463
520.656,32.569
520.924,32.684
521.192,32.805
521.461,32.898
521.729,32.975
521.997,33.044
522.266,33.130
522.534,33.215
522.803,33.303
523.071,33.383
523.340,33.468
523.609,33.549
523.877,33.634
524.146,33.719
524.415,33.813
524.684,33.899
524.952,33.973
525.221,34.040
525.490,34.119
525.759,34.193
526.028,34.254
526.297,34.284
526.566,34.327
526.835,34.383
527.104,34.470
527.373,34.558
527.642,34.632
527.912,34.675
528.181,34.718
528.450,34.775
528.719,34.843
528.989,34.913
529.258,34.986
529.528,35.037
529.797,35.066
530.067,35.096
530.336,35.138
530.606,35.167
530.875,35.167
531.145,35.168
531.414,35.193
531.684,35.236
531.954,35.270
532.224,35.300
532.493,35.317
532.763,35.341
533.033,35.377
533.303,35.429
533.573,35.488
533.843,35.510
534.113,35.528
534.383,35.536
534.653,35.574
534.923,35.609
535.193,35.652
535.463,35.691
535.733,35.730
536.004,35.764
536.274,35.795
536.544,35.815
536.814,35.850
537.085,35.883
537.355,35.949
537.626,36.004
537.896,36.046
538.166,36.048
538.437,36.061
538.707,36.098
538.978,36.175
539.249,36.270
539.519,36.363
539.790,36.410
540.061,36.430
540.331,36.442
540.602,36.476
540.873,36.485
541.144,36.481
541.414,36.473
541.685,36.505
541.956,36.543
542.227,36.586
542.498,36.614
542.769,36.647
543.040,36.684
543.311,36.737
543.582,36.806
543.853,36.875
544.124,36.933
544.396,36.981
544.667,37.024
544.938,37.047
545.209,37.007
545.480,36.954
545.752,36.901
546.023,36.895
546.294,36.867
546.566,36.843
546.837,36.818
547.109,36.822
547.380,36.831
547.652,36.838
547.923,36.834
548.195,36.842
548.466,36.845
548.738,36.847
549.009,36.819
549.281,36.778
549.553,36.733
549.824,36.692
550.096,36.674
550.368,36.677
550.640,36.691
550.911,36.702
551.183,36.720
551.455,36.747
551.727,36.753
551.999,36.725
552.271,36.671
552.543,36.632
552.815,36.603
553.087,36.607
553.359,36.611
553.631,36.611
553.903,36.572
554.175,36.523
554.447,36.470
554.719,36.432
554.991,36.400
555.263,36.376
555.535,36.347
555.808,36.335
556.080,36.320
556.352,36.305
556.624,36.260
556.897,36.207
557.169,36.144
557.441,36.083
557.714,36.011
557.986,35.953
558.258,35.910
558.531,35.909
558.803,35.914
559.076,35.915
559.348,35.875
559.621,35.814
559.893,35.747
560.166,35.702
560.438,35.662
560.711,35.627
560.983,35.601
561.256,35.605
561.528,35.605
561.801,35.578
562.074,35.525
562.346,35.472
562.619,35.413
562.892,35.353
563.164,35.288
563.437,35.251
563.710,35.214
563.983,35.170
564.255,35.125
564.528,35.134
564.801,35.179
565.074,35.220
565.346,35.203
565.619,35.166
565.892,35.111
566.165,35.040
566.438,34.927
566.711,34.818
566.984,34.733
567.257,34.688
567.529,34.651
567.802,34.630
568.075,34.610
568.348,34.581
568.621,34.528
568.894,34.459
569.167,34.384
569.440,34.306
569.713,34.199
569.986,34.093
570.259,33.972
570.532,33.882
570.805,33.805
571.078,33.751
571.351,33.701
571.625,33.651
571.898,33.577
572.171,33.483
572.444,33.370
572.717,33.277
572.990,33.190
573.263,33.086
573.536,32.962
573.809,32.834
574.083,32.735
574.356,32.670
574.629,32.635
574.902,32.597
575.175,32.535
575.448,32.448
575.721,32.336
575.995,32.235
576.268,32.145
576.541,32.099
576.814,32.064
577.087,32.044
577.361,32.016
577.634,31.975
577.907,31.892
578.180,31.785
578.453,31.673
578.727,31.585
579.000,31.503
579.273,31.438
579.546,31.386
579.820,31.359
580.093,31.334
580.366,31.305
580.639,31.254
580.913,31.208
581.186,31.140
581.459,31.072
581.732,30.969
582.005,30.877
582.279,30.765
582.552,30.653
582.825,30.536
583.098,30.450
583.372,30.394
583.645,30.374
583.918,30.368
584.191,30.361
584.464,30.324
584.738,30.276
585.011,30.197
585.284,30.093
585.557,29.968
585.831,29.856
586.104,29.759
586.377,29.703
586.650,29.651
586.923,29.624
587.196,29.581
587.470,29.530
587.743,29.466
588.016,29.399
588.289,29.333
588.562,29.261
588.835,29.156
589.109,29.027
589.382,28.898
589.655,28.812
589.928,28.763
590.201,28.726
590.474,28.695
590.747,28.663
591.020,28.619
591.293,28.539
591.567,28.433
591.840,28.311
592.113,28.176
592.386,28.034
592.659,27.894
592.932,27.794
593.205,27.729
593.478,27.691
593.751,27.650
594.024,27.609
594.297,27.530
594.570,27.429
594.843,27.322
595.116,27.219
595.389,27.111
595.662,26.990
595.934,26.885
596.207,26.802
596.480,26.733
596.753,26.673
597.026,26.585
597.299,26.496
597.572,26.399
597.844,26.307
598.117,26.179
598.390,26.029
598.663,25.869
598.936,25.720
599.208,25.578
599.481,25.453
599.754,25.357
600.026,25.266
600.299,25.180
600.572,25.085
600.844,24.983
601.117,24.870
601.390,24.747
601.662,24.623
601.935,24.484
602.207,24.349
602.480,24.215
602.752,24.089
603.025,23.951
603.297,23.833
603.570,23.743
603.842,23.693
604.115,23.625
604.387,23.540
604.660,23.401
604.932,23.261
605.204,23.114
605.477,22.987
605.749,22.862
606.021,22.748
606.294,22.635
606.566,22.517
606.838,22.407
607.110,22.313
607.383,22.249
607.655,22.198
607.927,22.146
608.199,22.080
608.471,21.978
608.743,21.839
609.015,21.686
609.287,21.546
609.559,21.419
609.831,21.299
610.103,21.171
610.375,21.042
610.647,20.905
610.919,20.771
611.191,20.645
611.463,20.526
611.735,20.386
612.007,20.225
612.278,20.063
612.550,19.931
612.822,19.813
613.094,19.695
613.365,19.555
613.637,19.428
613.909,19.292
614.180,19.170
614.452,19.043
614.723,18.919
614.995,18.794
615.266,18.680
615.538,18.585
615.809,18.494
616.081,18.377
616.352,18.246
616.623,18.103
616.895,17.970
617.166,17.829
617.437,17.695
617.709,17.576
617.980,17.485
618.251,17.401
618.522,17.324
618.793,17.257
619.065,17.218
619.336,17.142
619.607,17.033
619.878,16.900
620.149,16.792
620.420,16.673
620.691,16.536
620.962,16.405
621.232,16.312
621.503,16.218
621.774,16.133
622.045,16.042
622.316,15.984
622.586,15.924
622.857,15.875
623.128,15.799
623.398,15.717
623.669,15.602
623.940,15.475
624.210,15.333
624.481,15.231
624.751,15.142
625.021,15.072
625.292,14.981
625.562,14.913
625.833,14.839
626.103,14.781
626.373,14.706
626.643,14.646
626.914,14.570
627.184,14.496
627.454,14.411
627.724,14.327
627.994,14.240
628.264,14.150
628.534,14.053
628.804,13.960
629.074,13.885
629.344,13.819
629.614,13.750
629.884,13.677
630.154,13.611
630.424,13.551
630.693,13.483
630.963,13.409
631.233,13.330
631.502,13.255
631.772,13.183
632.041,13.107
632.311,13.025
632.581,12.943
632.850,12.862
633.119,12.768
633.389,12.685
633.658,12.625
633.928,12.590
634.197,12.561
634.466,12.528
634.735,12.485
635.004,12.410
635.274,12.323
635.543,12.240
635.812,12.173
636.081,12.112
636.350,12.048
636.619,11.982
636.888,11.909
637.157,11.847
637.426,11.800
637.694,11.753
637.963,11.695
638.232,11.626
638.501,11.560
638.769,11.504
639.038,11.452
639.307,11.407
639.575,11.355
639.844,11.277
640.112,11.181
640.381,11.081
640.649,11.007
640.917,10.943
641.186,10.885
641.454,10.831
641.722,10.776
641.991,10.715
642.259,10.641
642.527,10.570
642.795,10.510
643.063,10.450
643.331,10.397
643.599,10.346
643.867,10.314
644.135,10.279
644.403,10.245
644.671,10.193
644.939,10.143
645.206,10.084
645.474,10.029
645.742,9.961
646.009,9.888
646.277,9.822
646.545,9.764
646.812,9.729
647.080,9.703
647.347,9.670
647.615,9.609
647.882,9.520
648.149,9.434
648.417,9.361
648.684,9.305
648.951,9.261
649.219,9.219
649.486,9.168
649.753,9.111
650.020,9.038
650.287,8.975
650.554,8.904
650.821,8.840
651.088,8.770
651.355,8.719
651.622,8.667
651.889,8.621
652.155,8.561
652.422,8.509
652.689,8.457
652.956,8.405
653.222,8.358
653.489,8.328
653.755,8.287
654.022,8.219
654.288,8.124
654.555,8.042
654.821,7.980
655.088,7.930
655.354,7.881
655.620,7.836
655.887,7.783
656.153,7.729
656.419,7.674
656.685,7.621
656.951,7.567
657.217,7.509
657.483,7.452
657.749,7.392
658.015,7.340
658.281,7.290
658.547,7.228
658.813,7.164
659.079,7.096
659.345,7.032
659.610,6.963
659.876,6.899
660.142,6.850
660.407,6.811
660.673,6.776
660.939,6.742
661.204,6.695
661.470,6.646
661.735,6.597
662.000,6.564
662.266,6.523
662.531,6.473
662.796,6.417
663.062,6.363
663.327,6.306
663.592,6.260
663.857,6.218
664.122,6.182
664.388,6.134
664.653,6.098
664.918,6.067
665.183,6.035
665.448,5.999
665.712,5.963
665.977,5.934
666.242,5.900
666.507,5.832
666.772,5.759
667.037,5.686
667.301,5.645
667.566,5.602
667.831,5.568
668.095,5.527
668.360,5.495
668.624,5.448
668.889,5.424
669.153,5.393
669.418,5.376
669.682,5.350
669.946,5.332
670.211,5.321
670.475,5.300
670.739,5.274
671.004,5.244
671.268,5.232
671.532,5.233
671.796,5.176
672.060,5.105
672.324,5.019
672.588,4.993
672.852,4.985
673.116,5.013
673.380,5.044
673.644,4.990
673.908,4.895
674.172,4.793
674.436,4.764
674.700,4.740
674.963,4.708
675.227,4.668
675.491,4.609
675.754,4.559
676.018,4.506
676.282,4.477
676.545,4.442
676.809,4.409
677.072,4.370
677.336,4.331
677.599,4.303
677.863,4.271
678.126,4.245
678.389,4.233
678.653,4.232
678.916,4.221
679.179,4.180
679.442,4.136
679.706,4.102
679.969,4.081
680.232,4.062
680.495,4.050
680.758,4.037
681.021,4.007
681.284,3.957
681.547,3.910
681.810,3.887
682.073,3.891
682.336,3.887
682.599,3.865
682.862,3.829
683.125,3.807
683.388,3.797
683.651,3.787
683.913,3.766
684.176,3.722
684.439,3.671
684.702,3.622
684.964,3.592
685.227,3.576
685.490,3.568
685.752,3.567
686.015,3.551
686.277,3.525
686.540,3.489
686.802,3.455
687.065,3.433
687.327,3.420
687.590,3.408
687.852,3.382
688.115,3.344
688.377,3.313
688.639,3.292
688.902,3.276
689.164,3.263
689.426,3.260
689.689,3.257
689.951,3.233
690.213,3.202
690.475,3.174
690.737,3.151
691.000,3.116
691.262,3.086
691.524,3.074
691.786,3.081
692.048,3.091
692.310,3.078
692.572,3.042
692.834,2.997
693.096,2.974
693.358,2.970
693.620,2.979
693.882,2.983
694.144,2.971
694.406,2.941
694.668,2.908
694.930,2.877
695.192,2.853
695.453,2.837
695.715,2.829
695.977,2.814
696.239,2.792
696.501,2.774
696.762,2.767
697.024,2.759
697.286,2.736
697.548,2.716
697.809,2.701
698.071,2.685
698.333,2.665
698.594,2.641
698.856,2.633
699.118,2.627
699.379,2.622
699.641,2.618
699.902,2.614
700.164,2.601
700.426,2.573
700.687,2.542
700.949,2.528
701.210,2.521
701.472,2.510
701.733,2.487
701.995,2.471
702.256,2.457
702.518,2.444
702.779,2.426
703.041,2.430
703.302,2.444
703.563,2.444
703.825,2.421
704.086,2.396
704.348,2.379
704.609,2.373
704.871,2.377
705.132,2.389
705.393,2.379
705.655,2.362
705.916,2.344
706.177,2.339
706.439,2.335
706.700,2.325
706.961,2.312
707.223,2.301
707.484,2.272
707.745,2.241
708.007,2.204
708.268,2.178
708.529,2.156
708.790,2.127
709.052,2.103
709.313,2.089
709.574,2.084
709.835,2.078
710.097,2.062
710.358,2.036
710.619,2.008
710.881,1.980
711.142,1.965
711.403,1.951
711.664,1.945
711.926,1.926
712.187,1.917
712.448,1.914
712.709,1.923
712.970,1.932
713.232,1.935
713.493,1.933
713.754,1.923
714.015,1.916
714.277,1.917
714.538,1.925
714.799,1.940
715.060,1.943
715.322,1.935
715.583,1.911
715.844,1.886
716.105,1.864
716.367,1.851
716.628,1.846
716.889,1.840
717.150,1.825
717.411,1.799
717.673,1.786
717.934,1.780
718.195,1.783
718.457,1.772
718.718,1.750
718.979,1.733
719.240,1.732
719.502,1.746
719.763,1.760
720.024,1.764
720.286,1.761
720.547,1.748
720.808,1.733
721.069,1.722
721.331,1.721
721.592,1.730
721.853,1.733
722.115,1.733
722.376,1.728
722.638,1.722
722.899,1.716
723.160,1.701
723.422,1.686
723.683,1.675
723.944,1.676
724.206,1.675
724.467,1.670
724.729,1.662
724.990,1.668
725.252,1.677
725.513,1.670
725.775,1.650
726.036,1.633
726.298,1.632
726.559,1.642
726.821,1.645
727.082,1.645
727.344,1.638
727.605,1.639
727.867,1.636
728.128,1.642
728.390,1.642
728.652,1.650
728.913,1.665
729.175,1.679
729.436,1.682
729.698,1.680
729.960,1.668
730.221,1.657
730.483,1.635
730.745,1.629
731.007,1.626
731.268,1.622
731.530,1.621
731.792,1.621
732.054,1.631
732.315,1.640
732.577,1.647
732.839,1.639
733.101,1.625
733.363,1.612
733.625,1.608
733.887,1.611
734.149,1.612
734.411,1.618
734.673,1.624
734.935,1.628
735.197,1.625
735.459,1.626
735.721,1.629
735.983,1.623
736.245,1.605
736.507,1.601
736.769,1.610
737.031,1.622
737.293,1.615
737.555,1.596
737.818,1.582
738.080,1.571
738.342,1.570
738.604,1.569
738.867,1.574
739.129,1.576
739.391,1.575
739.654,1.572
739.916,1.577
740.178,1.592
740.441,1.610
740.703,1.616
740.966,1.607
741.228,1.595
741.491,1.588
741.753,1.593
742.016,1.595
742.278,1.598
742.541,1.599
742.804,1.604
743.066,1.615
743.329,1.620
743.592,1.618
743.854,1.617
744.117,1.623
744.380,1.631
744.643,1.625
744.905,1.608
745.168,1.596
745.431,1.586
745.694,1.579
745.957,1.573
746.220,1.566
746.483,1.562
746.746,1.560
747.009,1.577
747.272,1.610
747.535,1.638
747.798,1.644
748.061,1.623
748.324,1.595
748.588,1.577
748.851,1.573
749.114,1.576
749.377,1.585
749.641,1.590
749.904,1.601
750.167,1.615
750.431,1.625
750.694,1.633
750.958,1.632
751.221,1.618
751.485,1.590
751.748,1.570
752.012,1.572
752.275,1.601
752.539,1.614
752.803,1.608
753.066,1.586
753.330,1.572
753.594,1.568
753.857,1.565
754.121,1.571
754.385,1.580
754.649,1.591
754.913,1.595
755.177,1.602
755.441,1.595
755.705,1.579
755.969,1.560
756.233,1.565
756.497,1.577
756.761,1.579
757.025,1.571
757.289,1.561
757.553,1.558
757.818,1.564
758.082,1.575
758.346,1.584
758.610,1.588
758.875,1.588
759.139,1.581
759.404,1.569
759.668,1.554
759.932,1.552
760.197,1.563
760.462,1.573
760.726,1.578
760.991,1.574
761.255,1.573
761.520,1.566
761.785,1.550
762.049,1.527
762.314,1.512
762.579,1.520
762.844,1.541
763.109,1.559
763.374,1.557
763.639,1.549
763.903,1.532
764.168,1.523
764.433,1.518
764.699,1.538
764.964,1.554
765.229,1.553
765.494,1.535
765.759,1.523
766.024,1.524
766.290,1.537
766.555,1.551
766.820,1.560
767.086,1.563
767.351,1.559
767.616,1.552
767.882,1.543
768.147,1.533
768.413,1.523
768.678,1.514
768.944,1.520
769.209,1.531
769.475,1.551
769.741,1.561
770.006,1.574
770.272,1.582
770.538,1.582
770.804,1.574
771.070,1.567
771.335,1.574
771.601,1.589
771.867,1.593
772.133,1.585
772.399,1.567
772.665,1.540
772.931,1.530
773.197,1.540
773.464,1.565
773.730,1.581
773.996,1.582
774.262,1.587
774.528,1.584
774.795,1.583
775.061,1.585
775.327,1.586
775.594,1.580
775.860,1.556
776.126,1.519
776.393,1.487
776.659,1.473
776.926,1.472
777.193,1.481
777.459,1.491
777.726,1.491
777.992,1.487
778.259,1.478
778.526,1.483
778.793,1.491
779.059,1.502
779.326,1.515
779.593,1.524
779.860,1.538
780.127,1.540
780.394,1.537
780.661,1.527
780.928,1.510
781.195,1.494
781.462,1.482
781.729,1.486
781.996,1.493
782.263,1.502
782.530,1.517
782.797,1.525
783.064,1.509
783.332,1.486
783.599,1.466
783.866,1.468
784.134,1.469
784.401,1.476
784.668,1.481
784.936,1.486
785.203,1.481
785.470,1.467
785.738,1.458
786.005,1.458
786.273,1.461
786.541,1.459
786.808,1.463
787.076,1.469
787.343,1.479
787.611,1.491
787.879,1.510
788.146,1.513
788.414,1.516
788.682,1.500
788.950,1.495
789.217,1.487
789.485,1.501
789.753,1.513
790.021,1.503
790.289,1.476
790.557,1.450
790.825,1.443
791.093,1.455
791.361,1.478
791.629,1.501
791.897,1.517
792.165,1.515
792.433,1.504
792.701,1.479
792.969,1.453
793.237,1.434
793.505,1.442
793.773,1.462
794.042,1.470
794.310,1.467
794.578,1.461
794.846,1.459
795.115,1.456
795.383,1.454
795.651,1.466
795.920,1.476
796.188,1.480
796.456,1.483
796.725,1.490
796.993,1.507
797.261,1.519
797.530,1.518
797.798,1.507
798.067,1.503
798.335,1.511
798.604,1.506
798.872,1.480
799.141,1.455
799.409,1.449
799.678,1.458
799.946,1.470
800.215,1.477
800.483,1.474
800.752,1.469
801.020,1.462
801.289,1.457
801.558,1.454
801.826,1.455
802.095,1.453
802.363,1.455
802.632,1.460
802.901,1.473
803.169,1.477
803.438,1.472
803.707,1.458
803.976,1.442
804.244,1.441
804.513,1.445
804.782,1.442
805.050,1.436
805.319,1.438
805.588,1.455
805.857,1.473
806.125,1.481
806.394,1.475
806.663,1.459
806.931,1.444
807.200,1.437
807.469,1.441
807.738,1.443
808.006,1.442
808.275,1.449
808.544,1.470
808.813,1.491
809.082,1.493
809.350,1.480
809.619,1.468
809.888,1.456
810.157,1.444
810.425,1.435
810.694,1.436
810.963,1.447
811.232,1.447
811.500,1.439
811.769,1.427
812.038,1.432
812.306,1.448
812.575,1.469
812.844,1.480
813.113,1.485
813.381,1.473
813.650,1.470
813.919,1.478
814.187,1.492
814.456,1.500
814.725,1.497
814.993,1.490
815.262,1.483
815.531,1.477
815.799,1.472
816.068,1.459
816.336,1.445
816.605,1.440
816.873,1.446
817.142,1.462
817.411,1.476
817.679,1.481
817.948,1.495
818.216,1.525
818.485,1.580
818.753,1.622
819.021,1.593
819.290,1.523
819.558,1.463
819.827,1.459
820.095,1.474
820.363,1.481
820.632,1.478
820.900,1.473
821.168,1.475
821.437,1.484
821.705,1.489
821.973,1.490
822.241,1.485
822.509,1.483
822.777,1.473
823.046,1.469
823.314,1.479
823.582,1.493
823.850,1.499
824.118,1.499
824.386,1.490
824.654,1.465
824.922,1.438
825.190,1.421
825.457,1.433
825.725,1.453
825.993,1.459
826.261,1.456
826.529,1.452
826.796,1.452
827.064,1.445
827.332,1.441
827.599,1.451
827.867,1.478
828.134,1.491
828.402,1.481
828.669,1.458
828.937,1.446
829.204,1.460
829.471,1.487
829.739,1.503
830.006,1.502
830.273,1.482
830.540,1.463
830.807,1.442
831.075,1.437
831.342,1.446
831.609,1.454
831.876,1.462
832.142,1.470
832.409,1.482
832.676,1.478
832.943,1.458
833.210,1.441
833.476,1.437
833.743,1.445
834.010,1.453
834.276,1.446
834.543,1.434
834.809,1.431
835.076,1.439
835.342,1.449
835.608,1.467
835.874,1.484
836.141,1.485
836.407,1.472
836.673,1.452
836.939,1.444
837.205,1.436
837.471,1.435
837.737,1.441
838.002,1.446
838.268,1.449
838.534,1.454
838.799,1.456
839.065,1.463
839.330,1.464
839.596,1.461
839.861,1.460
840.127,1.467
840.392,1.476
840.657,1.485
840.922,1.501
841.187,1.515
841.452,1.516
841.717,1.510
841.982,1.493
842.247,1.476
842.511,1.461
842.776,1.465
843.041,1.472
843.305,1.466
843.570,1.451
843.834,1.442
844.098,1.439
844.362,1.441
844.627,1.438
844.891,1.437
845.155,1.439
845.419,1.448
845.682,1.458
845.946,1.465
846.210,1.472
846.474,1.473
846.737,1.479
847.001,1.474
847.264,1.460
847.527,1.449
847.790,1.446
848.054,1.449
848.317,1.437
848.580,1.424
848.843,1.423
849.105,1.447
849.368,1.481
849.631,1.502
849.893,1.507
850.156,1.511
850.418,1.509
850.680,1.486
850.943,1.464
851.205,1.463
851.467,1.467
851.729,1.461
851.991,1.455
852.252,1.462
852.514,1.478
852.776,1.486
853.037,1.496
853.298,1.495
853.560,1.484
853.821,1.460
854.082,1.434
854.343,1.429
854.604,1.450
854.865,1.494
855.126,1.523
855.386,1.535
855.647,1.528
855.907,1.514
856.168,1.491
856.428,1.468
856.688,1.458
856.948,1.441
857.208,1.427
857.468,1.426
857.727,1.440
857.987,1.453
858.247,1.461
858.506,1.476
858.765,1.481
859.024,1.467
859.284,1.446
859.543,1.433
859.801,1.433
860.060,1.434
860.319,1.448
860.577,1.463
860.836,1.474
861.094,1.479
861.352,1.479
861.611,1.470
861.869,1.453
862.127,1.443
862.384,1.451
862.642,1.459
862.900,1.471
863.157,1.475
863.414,1.471
863.672,1.450
863.929,1.425
864.186,1.418
864.443,1.427
864.699,1.441
864.956,1.447
865.212,1.435
865.469,1.427
865.725,1.433
865.981,1.452
866.237,1.464
866.493,1.469
866.749,1.459
867.005,1.450
867.260,1.435
867.516,1.427
867.771,1.420
868.026,1.421
868.282,1.435
868.536,1.446
868.791,1.444
869.046,1.428
869.301,1.417
869.555,1.420
869.809,1.437
870.064,1.452
870.318,1.464
870.572,1.470
870.826,1.453
871.079,1.437
871.333,1.423
871.586,1.431
871.840,1.435
872.093,1.437
872.346,1.449
872.599,1.477
872.852,1.510
873.105,1.526
873.357,1.514
873.610,1.485
873.862,1.472
874.114,1.471
874.366,1.480
874.618,1.470
874.870,1.443
875.121,1.415
875.373,1.406
875.624,1.416
875.876,1.425
876.127,1.428
876.378,1.429
876.629,1.432
876.879,1.439
877.130,1.446
877.381,1.442
877.631,1.427
877.881,1.416
878.131,1.428
878.381,1.456
878.631,1.491
878.881,1.508
879.130,1.507
879.380,1.491
879.629,1.471
879.878,1.453
880.127,1.440
880.376,1.441
880.625,1.457
880.873,1.479
881.122,1.494
881.370,1.495
881.618,1.480
881.866,1.465
882.114,1.452
882.362,1.449
882.610,1.454
882.857,1.462
883.105,1.462
883.352,1.444
883.599,1.426
883.846,1.414
884.093,1.414
884.340,1.426
884.586,1.445
884.833,1.456
885.079,1.457
885.325,1.447
885.571,1.447
885.817,1.447
886.063,1.457
886.309,1.463
886.554,1.480
886.800,1.494
887.045,1.500
887.290,1.481
887.535,1.454
887.780,1.446
888.025,1.459
888.270,1.486
888.514,1.509
888.758,1.513
889.003,1.501
889.247,1.469
889.491,1.462
889.735,1.468
889.978,1.489
890.222,1.487
890.465,1.474
890.709,1.456
890.952,1.439
891.195,1.425
891.438,1.419
891.681,1.414
891.923,1.415
892.166,1.421
892.408,1.429
892.651,1.425
892.893,1.415
893.135,1.409
893.377,1.415
893.619,1.425
893.861,1.437
894.102,1.450
894.344,1.474
894.585,1.505
894.826,1.522
895.067,1.509
895.308,1.481
895.549,1.453
895.790,1.435
896.031,1.420
896.271,1.427
896.512,1.453
896.752,1.477
896.992,1.478
897.232,1.461
897.472,1.446
897.712,1.456
897.952,1.481
898.191,1.494
898.431,1.495
898.670,1.499
898.910,1.508
899.149,1.520
899.388,1.527
899.627,1.528
899.866,1.513
900.105,1.484
900.343,1.467
900.582,1.466
900.820,1.478
901.059,1.497
901.297,1.508
901.535,1.488
901.773,1.451
902.011,1.420
902.249,1.408
902.487,1.409
902.725,1.418
902.963,1.435
903.200,1.441
903.438,1.436
903.675,1.433
903.912,1.438
904.150,1.453
904.387,1.458
904.624,1.451
904.861,1.437
905.098,1.428
905.334,1.433
905.571,1.429
905.808,1.429
906.045,1.439
906.281,1.454
906.518,1.460
906.754,1.461
906.990,1.463
907.227,1.463
907.463,1.449
907.699,1.440
907.935,1.446
908.171,1.463
908.407,1.466
908.643,1.461
908.879,1.457
909.115,1.468
909.350,1.476
909.586,1.479
909.822,1.477
910.057,1.494
910.293,1.526
910.528,1.548
910.764,1.539
910.999,1.525
911.235,1.504
911.470,1.504
911.706,1.491
911.941,1.489
912.176,1.477
912.412,1.462
912.647,1.458
912.882,1.465
913.117,1.472
913.352,1.467
913.588,1.456
913.823,1.451
914.058,1.449
914.293,1.452
914.528,1.444
914.763,1.436
914.999,1.431
915.234,1.433
915.469,1.440
915.704,1.439
915.939,1.433
916.174,1.426
916.409,1.430
916.645,1.453
916.880,1.476
917.115,1.489
917.350,1.480
917.586,1.468
917.821,1.465
918.056,1.478
918.292,1.495
918.527,1.496
918.763,1.479
918.998,1.460
919.234,1.472
919.469,1.504
919.705,1.520
919.940,1.509
920.176,1.488
920.412,1.490
920.648,1.490
920.884,1.482
921.120,1.465
921.356,1.456
921.592,1.451
921.828,1.446
922.065,1.445
922.301,1.455
922.537,1.473
922.774,1.482
923.011,1.474
923.247,1.453
923.484,1.452
923.721,1.464
923.958,1.479
924.195,1.477
924.433,1.469
924.670,1.452
924.908,1.434
925.145,1.428
925.383,1.444
925.621,1.464
925.859,1.477
926.097,1.487
926.335,1.487
926.574,1.488
926.813,1.485
927.051,1.482
927.290,1.475
927.529,1.487
927.769,1.518
928.008,1.539
928.248,1.514
928.487,1.480
928.727,1.462
928.967,1.485
929.208,1.504
929.448,1.504
929.689,1.486
929.930,1.462
930.171,1.447
930.413,1.441
930.654,1.443
930.896,1.436
931.138,1.424
931.380,1.413
931.623,1.420
931.865,1.436
932.108,1.454
932.352,1.467
932.595,1.477
932.839,1.484
933.083,1.479
933.327,1.466
933.571,1.447
933.816,1.446
934.061,1.450
934.307,1.451
934.552,1.439
934.798,1.433
935.045,1.435
935.291,1.442
935.538,1.447
935.785,1.457
936.033,1.472
936.281,1.485
936.529,1.492
936.777,1.493
937.026,1.482
937.275,1.471
937.525,1.454
937.775,1.439
938.025,1.427
938.276,1.422
938.527,1.426
938.778,1.427
939.030,1.423
939.282,1.420
939.535,1.425
939.788,1.440
940.041,1.440
940.295,1.432
940.550,1.431
940.804,1.448
941.059,1.463
941.315,1.454
941.571,1.433
941.828,1.417
942.085,1.418
942.342,1.427
942.600,1.431
942.858,1.429
943.117,1.419
943.377,1.414
943.636,1.408
943.897,1.409
944.158,1.418
944.419,1.436
944.681,1.447
944.944,1.455
945.207,1.461
945.470,1.468
945.734,1.472
945.999,1.486
946.264,1.507
946.530,1.518
946.797,1.510
947.064,1.495
947.331,1.483
947.600,1.466
947.869,1.446
948.138,1.431
948.408,1.426
948.679,1.430
948.950,1.440
949.222,1.440
949.495,1.435
949.768,1.434
950.043,1.449
