Intensity BB9.1,,C:\Users\Brend\Desktop\LED Spectras v2\Blinds\-Interference\Spectrometer Data.sp,,,BB9.1,
1.743,,2018-07-12 09:38:29,,Integration Time,100 ms,
1.725,,Analyze Light,,Number of Scans to Average,25,
1.725,,,,Smoothing,0,
1.740
1.757
1.772
1.782
1.775
1.764
1.772
1.780
1.775
1.777
1.801
1.815
1.809
1.788
1.796
1.795
1.803
1.814
1.837
1.845
1.841
1.845
1.854
1.856
1.863
1.869
1.883
1.898
1.899
1.888
1.885
1.876
1.887
1.883
1.884
1.896
1.903
1.902
1.907
1.907
1.927
1.924
1.928
1.944
1.952
1.950
1.958
1.972
1.965
1.960
1.966
1.965
1.956
1.958
1.975
1.988
1.996
2.003
2.018
2.024
2.038
2.033
2.032
2.029
2.047
2.052
2.065
2.080
2.075
2.066
2.078
2.089
2.106
2.126
2.118
2.115
2.116
2.097
2.104
2.116
2.108
2.113
2.141
2.167
2.174
2.156
2.148
2.140
2.143
2.145
2.150
2.166
2.179
2.194
2.198
2.199
2.212
2.216
2.224
2.213
2.214
2.211
2.213
2.229
2.252
2.257
2.253
2.260
2.269
2.261
2.274
2.278
2.270
2.264
2.281
2.296
2.300
2.294
2.301
2.294
2.323
2.339
2.333
2.337
2.339
2.337
2.352
2.365
2.365
2.355
2.359
2.368
2.382
2.386
2.394
2.388
2.400
2.390
2.401
2.406
2.413
2.410
2.422
2.411
2.410
2.417
2.428
2.431
2.436
2.428
2.427
2.437
2.456
2.453
2.464
2.461
2.472
2.479
2.474
2.468
2.473
2.462
2.454
2.450
2.465
2.453
2.470
2.472
2.485
2.480
2.497
2.493
2.486
2.486
2.500
2.504
2.511
2.511
2.522
2.520
2.542
2.557
2.597
2.596
2.581
2.585
2.589
2.600
2.642
2.654
2.663
2.677
2.719
2.741
2.783
2.810
2.842
2.869
2.909
2.936
2.976
3.028
3.085
3.125
3.193
3.245
3.314
3.374
3.470
3.547
3.631
3.706
3.805
3.879
3.979
4.087
4.194
4.299
4.449
4.580
4.751
4.880
5.041
5.186
5.355
5.497
5.685
5.866
6.086
6.317
6.557
6.771
7.012
7.230
7.491
7.744
8.041
8.281
8.563
8.847
9.155
9.483
9.828
10.168
10.524
10.883
11.276
11.649
12.021
12.426
12.849
13.263
13.703
14.164
14.678
15.174
15.750
16.314
16.862
17.469
18.080
18.730
19.400
20.095
20.863
21.624
22.441
23.258
24.155
25.111
26.089
27.100
28.195
29.277
30.413
31.621
32.897
34.197
35.591
36.996
38.437
39.875
41.392
42.947
44.558
46.213
47.886
49.599
51.329
53.054
54.813
56.555
58.224
59.853
61.451
62.984
64.471
65.859
67.191
68.418
69.512
70.515
71.343
72.118
72.779
73.293
73.666
73.921
73.974
73.856
73.624
73.223
72.698
72.089
71.342
70.525
69.554
68.503
67.348
66.053
64.646
63.234
61.826
60.358
58.917
57.483
56.061
54.620
53.208
51.840
50.503
49.181
47.891
46.649
45.490
44.362
43.316
42.368
41.449
40.553
39.742
38.985
38.266
37.578
36.926
36.314
35.716
35.152
34.607
34.039
33.545
33.036
32.535
32.053
31.551
31.009
30.498
30.028
29.583
29.123
28.651
28.188
27.683
27.175
26.668
26.140
25.660
25.152
24.637
24.125
23.598
23.055
22.551
22.018
21.462
20.910
20.363
19.825
19.372
18.875
18.361
17.853
17.345
16.848
16.389
15.928
15.456
15.044
14.666
14.265
13.866
13.488
13.157
12.809
12.518
12.182
11.879
11.557
11.284
10.991
10.693
10.415
10.157
9.920
9.755
9.528
9.288
9.073
8.862
8.643
8.457
8.265
8.111
7.942
7.773
7.579
7.410
7.247
7.083
6.886
6.739
6.580
6.437
6.292
6.154
5.999
5.862
5.700
5.572
5.422
5.300
5.138
5.030
4.892
4.769
4.635
4.511
4.370
4.289
4.175
4.072
3.962
3.885
3.772
3.685
3.568
3.480
3.407
3.332
3.226
3.150
3.069
3.015
2.951
2.918
2.857
2.805
2.728
2.677
2.631
2.568
2.508
2.476
2.443
2.429
2.396
2.362
2.323
2.322
2.292
2.241
2.213
2.191
2.158
2.122
2.114
2.107
2.075
2.043
2.012
2.000
1.977
1.956
1.936
1.916
1.904
1.895
1.894
1.888
1.874
1.852
1.830
1.823
1.796
1.769
1.771
1.774
1.783
1.781
1.768
1.762
1.743
1.738
1.729
1.728
1.704
1.688
1.685
1.674
1.658
1.656
1.649
1.657
1.669
1.668
1.638
1.637
1.632
1.646
1.634
1.623
1.609
1.593
1.585
1.590
1.595
1.598
1.596
1.583
1.568
1.554
1.564
1.559
1.545
1.547
1.534
1.536
1.534
1.526
1.512
1.522
1.525
1.513
1.489
1.511
1.505
1.479
1.481
1.484
1.481
1.482
1.492
1.489
1.494
1.501
1.489
1.482
1.482
1.486
1.472
1.455
1.454
1.458
1.454
1.458
1.460
1.446
1.453
1.474
1.467
1.454
1.440
1.437
1.430
1.450
1.456
1.444
1.434
1.425
1.428
1.438
1.449
1.444
1.432
1.428
1.445
1.439
1.431
1.426
1.422
1.429
1.432
1.421
1.414
1.397
1.400
1.420
1.423
1.418
1.403
1.408
1.405
1.423
1.429
1.431
1.439
1.439
1.432
1.431
1.417
1.407
1.417
1.427
1.433
1.426
1.421
1.411
1.406
1.411
1.414
1.400
1.384
1.393
1.404
1.418
1.422
1.424
1.419
1.416
1.407
1.398
1.389
1.398
1.413
1.421
1.419
1.414
1.415
1.418
1.421
1.414
1.385
1.397
1.411
1.415
1.406
1.405
1.393
1.398
1.395
1.384
1.388
1.415
1.430
1.433
1.414
1.404
1.397
1.374
1.376
1.384
1.385
1.398
1.414
1.428
1.421
1.398
1.389
1.388
1.394
1.415
1.415
1.411
1.407
1.412
1.410
1.407
1.408
1.406
1.401
1.393
1.386
1.392
1.395
1.387
1.394
1.390
1.381
1.389
1.382
1.393
1.398
1.399
1.389
1.383
1.390
1.383
1.377
1.374
1.373
1.384
1.402
1.403
1.404
1.415
1.411
1.396
1.391
1.391
1.383
1.372
1.373
1.397
1.401
1.389
1.377
1.391
1.401
1.385
1.371
1.373
1.368
1.366
1.384
1.400
1.394
1.382
1.391
1.387
1.384
1.374
1.351
1.363
1.365
1.378
1.386
1.384
1.385
1.393
1.368
1.353
1.357
1.369
1.371
1.363
1.353
1.344
1.350
1.368
1.396
1.389
1.382
1.369
1.368
1.368
1.368
1.377
1.380
1.379
1.385
1.378
1.353
1.356
1.361
1.355
1.363
1.381
1.398
1.404
1.384
1.374
1.372
1.374
1.369
1.362
1.357
1.356
1.356
1.360
1.359
1.360
1.372
1.374
1.372
1.368
1.363
1.367
1.372
1.370
1.366
1.376
1.391
1.408
1.406
1.392
1.385
1.376
1.373
1.374
1.381
1.389
1.368
1.357
1.360
1.356
1.358
1.356
1.368
1.372
1.373
1.375
1.376
1.371
1.364
1.346
1.346
1.365
1.372
1.364
1.358
1.354
1.339
1.343
1.360
1.362
1.365
1.372
1.377
1.380
1.385
1.387
1.377
1.378
1.377
1.365
1.346
1.343
1.345
1.352
1.359
1.365
1.367
1.347
1.344
1.346
1.330
1.327
1.338
1.340
1.328
1.341
1.353
1.346
1.337
1.353
1.364
1.374
1.373
1.371
1.354
1.358
1.373
1.380
1.383
1.384
1.376
1.351
1.358
1.368
1.368
1.368
1.373
1.373
1.368
1.359
1.352
1.354
1.356
1.360
1.360
1.348
1.345
1.343
1.354
1.360
1.357
1.350
1.343
1.347
1.356
1.356
1.357
1.373
1.376
1.380
1.376
1.361
1.350
1.355
1.367
1.366
1.354
1.350
1.353
1.346
1.338
1.344
1.358
1.360
1.368
1.368
1.387
1.396
1.363
1.357
1.368
1.374
1.366
1.365
1.378
1.380
1.364
1.369
1.369
1.375
1.389
1.388
1.376
1.370
1.369
1.359
1.352
1.369
1.359
1.350
1.352
1.356
1.349
1.342
1.336
1.343
1.352
1.360
1.355
1.352
1.355
1.350
1.341
1.346
1.368
1.368
1.360
1.346
1.333
1.328
1.321
1.309
1.309
1.326
1.340
1.350
1.356
1.359
1.348
1.333
1.334
1.340
1.353
1.357
1.368
1.370
1.357
1.349
1.347
1.348
1.352
1.355
1.356
1.353
1.357
1.361
1.349
1.349
1.351
1.334
1.351
1.358
1.361
1.368
1.352
1.347
1.337
1.337
1.345
1.344
1.351
1.342
1.336
1.325
1.333
1.332
1.324
1.338
1.349
1.355
1.354
1.358
1.344
1.354
1.360
1.365
1.355
1.342
1.344
1.351
1.371
1.377
1.372
1.356
1.336
1.338
1.335
1.340
1.353
1.355
1.348
1.342
1.334
1.329
1.335
1.335
1.331
1.350
1.338
1.332
1.331
1.338
1.347
1.349
1.368
1.387
1.367
1.347
1.344
1.345
1.345
1.349
1.356
1.368
1.368
1.367
1.363
1.355
1.360
1.352
1.345
1.343
1.347
1.343
1.329
1.327
1.327
1.323
1.322
1.326
1.332
1.337
1.337
1.339
1.329
1.332
1.334
1.340
1.340
1.337
1.338
1.334
1.333
1.339
1.332
1.333
1.335
1.340
1.346
1.344
1.354
1.352
1.352
1.340
1.313
1.318
1.325
1.326
1.327
1.340
1.332
1.334
1.329
1.345
1.331
1.337
1.337
1.343
1.353
1.356
1.365
1.375
1.406
1.414
1.358
1.364
1.375
1.378
1.397
1.441
1.429
1.350
1.344
1.346
1.347
1.346
1.343
1.344
1.336
1.340
1.339
1.348
1.345
1.329
1.326
1.333
1.341
1.333
1.332
1.349
1.349
1.337
1.327
1.337
1.342
1.333
1.339
1.355
1.351
1.342
1.327
1.324
1.342
1.359
1.349
1.337
1.343
1.346
1.348
1.343
1.335
1.327
1.323
1.324
1.331
1.340
1.350
1.357
1.339
1.335
1.333
1.326
1.334
1.341
1.335
1.326
1.318
1.323
1.327
1.332
1.336
1.349
1.344
1.339
1.341
1.332
1.325
1.322
1.330
1.339
1.357
1.360
1.341
1.327
1.323
1.331
1.345
1.354
1.353
1.344
1.336
1.339
1.341
1.341
1.346
1.343
1.328
1.330
1.336
1.339
1.326
1.323
1.329
1.333
1.328
1.338
1.345
1.349
1.350
1.346
1.353
1.358
1.342
1.331
1.328
1.339
1.337
1.327
1.323
1.327
1.322
1.315
1.319
1.349
1.344
1.325
1.322
1.324
1.323
1.331
1.339
1.338
1.324
1.333
1.342
1.337
1.330
1.320
1.315
1.313
1.289
1.285
1.285
1.277
1.265
1.259
1.258
1.267
1.266
1.264
1.250
1.237
1.230
1.224
1.221
1.221
1.225
1.225
1.235
1.246
1.246
1.242
1.240
1.243
1.247
1.257
1.262
1.273
1.287
1.275
1.270
1.269
1.250
1.236
1.242
1.240
1.238
1.237
1.229
1.243
1.255
1.250
1.237
1.223
1.226
1.235
1.242
1.247
1.246
1.239
1.226
1.223
1.232
1.245
1.245
1.237
1.244
1.248
1.240
1.242
1.237
1.228
1.223
1.235
1.235
1.241
1.245
1.261
1.253
1.227
1.212
1.224
1.230
1.231
1.230
1.234
1.236
1.231
1.229
1.236
1.237
1.246
1.264
1.255
1.252
1.256
1.246
1.233
1.220
1.231
1.230
1.233
1.235
1.228
1.234
1.237
1.234
1.218
1.219
1.219
1.221
1.226
1.220
1.233
1.242
1.242
1.239
1.251
1.237
1.226
1.226
1.241
1.249
1.244
1.230
1.224
1.222
1.220
1.216
1.223
1.222
1.216
1.211
1.212
1.217
1.231
1.236
1.229
1.220
1.222
1.222
1.232
1.230
1.225
1.228
1.235
1.241
1.237
1.230
1.240
1.242
1.234
1.223
1.222
1.230
1.223
1.215
1.210
1.208
1.216
1.225
1.242
1.261
1.261
1.241
1.225
1.216
1.219
1.219
1.223
1.231
1.240
1.248
1.251
1.249
1.252
1.248
1.233
1.222
1.221
1.229
1.242
1.235
1.221
1.211
1.213
1.216
1.227
1.239
1.236
1.232
1.238
1.246
1.237
1.227
1.233
1.246
1.242
1.239
1.226
1.222
1.226
1.231
1.237
1.238
1.242
1.239
1.232
1.227
1.232
1.235
1.242
1.242
1.242
1.242
1.242
1.236
1.230
1.217
1.217
1.234
1.244
1.237
1.236
1.238
1.237
1.235
1.241
1.243
1.230
1.214
1.218
1.216
1.215
1.231
1.235
1.235
1.243
1.240
1.235
1.231
1.236
1.233
1.230
1.242
1.240
1.243
1.253
1.258
1.254
1.242
1.234
1.242
1.255
1.257
1.249
1.244
1.236
1.228
1.239
1.242
1.251
1.266
1.266
1.264
1.254
1.256
1.266
1.258
1.256
1.241
1.224
1.230
1.232
1.220
1.228
1.226
1.217
1.225
1.225
1.226
1.230
1.236
1.242
1.242
1.246
1.239
1.242
1.246
1.230
1.218
1.221
1.226
1.227
1.233
1.257
1.252
1.237
1.231
1.229
1.239
1.235
1.232
1.242
1.240
1.232
1.230
1.231
1.229
1.223
1.219
1.219
1.215
1.225
1.236
1.246
1.243
1.248
1.237
1.233
1.249
1.259
1.252
1.230
1.221
1.213
1.220
1.236
1.252
1.255
1.255
1.249
1.234
1.222
1.218
1.221
1.235
1.238
1.228
1.228
1.223
1.227
1.220
1.224
1.236
1.231
1.231
1.236
1.231
1.242
1.242
1.230
1.236
1.253
1.249
1.231
1.220
1.231
1.238
1.244
1.254
1.241
1.239
1.236
1.225
1.223
1.227
1.224
1.213
1.217
1.223
1.230
1.231
1.220
1.213
1.222
1.235
1.234
1.221
1.223
1.235
1.242
1.251
1.243
1.236
1.223
1.215
1.217
1.223
1.215
1.218
1.234
1.249
1.257
1.247
1.242
1.243
1.223
1.217
1.220
1.227
1.234
1.222
1.215
1.213
1.228
1.237
1.244
1.238
1.240
1.226
1.238
1.242
1.242
1.248
1.250
1.235
1.237
1.242
1.242
1.229
1.223
1.227
1.234
1.239
1.244
1.254
1.258
1.273
1.307
1.304
1.243
1.220
1.236
1.242
1.246
1.244
1.239
1.246
1.256
1.256
1.251
1.262
1.250
1.244
1.233
1.227
1.242
1.245
1.242
1.242
1.243
1.218
1.210
1.216
1.224
1.231
1.215
1.214
1.227
1.224
1.223
1.233
1.243
1.253
1.244
1.226
1.229
1.233
1.257
1.270
1.259
1.250
1.242
1.234
1.225
1.227
1.235
1.225
1.239
1.247
1.243
1.235
1.223
1.220
1.228
1.235
1.238
1.225
1.227
1.234
1.238
1.238
1.258
1.256
1.241
1.246
1.231
1.231
1.237
1.232
1.235
1.230
1.226
1.232
1.233
1.234
1.228
1.227
1.245
1.251
1.246
1.244
1.259
1.256
1.252
1.263
1.254
1.235
1.243
1.242
1.231
1.225
1.229
1.225
1.229
1.234
1.219
1.219
1.228
1.233
1.239
1.242
1.243
1.232
1.241
1.235
1.222
1.231
1.228
1.216
1.220
1.222
1.231
1.249
1.248
1.245
1.260
1.268
1.243
1.222
1.238
1.245
1.233
1.229
1.234
1.246
1.250
1.252
1.257
1.242
1.233
1.223
1.218
1.233
1.262
1.272
1.267
1.274
1.264
1.248
1.240
1.234
1.234
1.219
1.219
1.232
1.237
1.232
1.239
1.249
1.238
1.218
1.228
1.226
1.226
1.233
1.244
1.250
1.256
1.258
1.242
1.233
1.226
1.232
1.243
1.242
1.249
1.251
1.238
1.226
1.219
1.223
1.230
1.232
1.229
1.216
1.228
1.241
1.241
1.240
1.243
1.227
1.229
1.225
1.222
1.221
1.230
1.241
1.239
1.227
1.217
1.217
1.229
1.244
1.238
1.243
1.246
1.218
1.217
1.237
1.234
1.230
1.234
1.251
1.263
1.263
1.264
1.254
1.248
1.255
1.251
1.250
1.232
1.210
1.221
1.237
1.239
1.235
1.232
1.232
1.233
1.243
1.242
1.224
1.220
1.230
1.244
1.262
1.273
1.264
1.256
1.247
1.241
1.238
1.239
1.241
1.241
1.246
1.243
1.244
1.236
1.232
1.228
1.238
1.252
1.250
1.248
1.225
1.224
1.224
1.222
1.232
1.240
1.235
1.233
1.223
1.224
1.234
1.245
1.245
1.263
1.261
1.249
1.234
1.227
1.231
1.243
1.259
1.261
1.252
1.236
1.219
1.242
1.252
1.251
1.243
1.239
1.227
1.218
1.219
1.228
1.222
1.232
1.241
1.236
1.229
1.227
1.221
1.223
1.231
1.236
1.240
1.260
1.275
1.270
1.251
1.241
1.226
1.213
1.217
1.232
1.242
1.247
1.241
1.237
1.239
1.251
1.267
1.252
1.249
1.259
1.264
1.280
1.281
1.268
1.262
1.243
1.238
1.247
1.254
1.260
1.255
1.232
1.223
1.226
1.217
1.222
1.232
1.229
1.215
1.221
1.230
1.242
1.254
1.241
1.214
1.220
1.216
1.222
1.223
1.236
1.247
1.237
1.234
1.243
1.245
1.234
1.226
1.229
1.240
1.250
1.240
1.240
1.242
1.249
1.246
1.244
1.251
1.271
1.287
1.276
1.263
1.266
1.243
1.246
1.243
1.242
1.233
1.231
1.242
1.251
1.245
1.240
1.236
1.243
1.247
1.250
1.235
1.236
1.237
1.234
1.240
1.235
1.229
1.227
1.242
1.254
1.251
1.242
1.235
1.233
1.245
1.257
1.253
1.246
1.229
1.232
1.258
1.268
1.257
1.247
1.254
1.264
1.254
1.247
1.243
1.242
1.240
1.239
1.243
1.253
1.255
1.253
1.230
1.229
1.250
1.256
1.248
1.247
1.248
1.226
1.220
1.236
1.245
1.242
1.251
1.259
1.246
1.247
1.247
1.240
1.250
1.270
1.283
1.270
1.245
1.245
1.255
1.264
1.257
1.247
1.239
1.224
1.225
1.233
1.223
1.219
1.226
1.227
1.239
1.251
1.247
1.245
1.248
1.249
1.240
1.236
1.231
1.242
1.243
1.229
1.220
1.237
1.242
1.239
1.243
1.243
1.248
1.259
1.256
1.243
1.240
1.240
1.226
1.225
1.219
1.211
1.217
1.216
1.207
1.219
1.224
1.226
1.224
1.219
1.233
1.248
1.239
1.221
1.214
1.224
1.228
1.231
1.227
1.229
1.219
1.219
1.214
1.220
1.224
1.234
1.233
1.242
1.247
1.255
1.259
1.265
1.269
1.256
1.249
1.247
1.244
1.233
1.230
1.224
1.221
1.231
1.238
1.218
1.215
1.227
