Intensity ββ4.3,,C:\Users\Brend\Desktop\LED Spectras v2\Blinds\-Interference\Spectrometer Data (Alt).sp,,,ββ4.3,
1.597,,2018-07-11 14:00:23,,Integration Time,100 ms,
1.591,,Analyze Light,,Number of Scans to Average,25,
1.587,,,,Smoothing,1,
1.589
1.597
1.608
1.619
1.623
1.624
1.626
1.633
1.634
1.638
1.646
1.652
1.647
1.636
1.628
1.629
1.635
1.648
1.658
1.667
1.669
1.670
1.672
1.680
1.688
1.697
1.703
1.708
1.709
1.707
1.701
1.698
1.695
1.693
1.694
1.699
1.706
1.710
1.710
1.714
1.717
1.724
1.731
1.739
1.743
1.744
1.746
1.746
1.747
1.749
1.753
1.751
1.744
1.745
1.752
1.764
1.772
1.779
1.785
1.789
1.794
1.798
1.800
1.803
1.801
1.801
1.805
1.814
1.819
1.821
1.826
1.835
1.847
1.852
1.852
1.846
1.842
1.838
1.841
1.843
1.843
1.844
1.857
1.878
1.887
1.887
1.881
1.879
1.875
1.873
1.874
1.877
1.884
1.895
1.904
1.907
1.909
1.914
1.915
1.917
1.917
1.922
1.923
1.933
1.943
1.950
1.952
1.954
1.956
1.952
1.947
1.939
1.930
1.928
1.934
1.946
1.953
1.958
1.953
1.956
1.964
1.977
1.985
1.988
1.993
1.999
2.003
2.009
2.013
2.014
2.016
2.023
2.028
2.031
2.029
2.031
2.030
2.035
2.039
2.044
2.042
2.038
2.034
2.031
2.031
2.036
2.040
2.044
2.047
2.050
2.050
2.051
2.056
2.067
2.075
2.084
2.091
2.098
2.098
2.097
2.094
2.092
2.086
2.088
2.085
2.084
2.079
2.084
2.088
2.097
2.100
2.100
2.095
2.095
2.097
2.103
2.103
2.105
2.102
2.103
2.104
2.119
2.133
2.140
2.135
2.126
2.127
2.135
2.145
2.154
2.158
2.170
2.181
2.191
2.200
2.213
2.227
2.244
2.259
2.271
2.284
2.301
2.323
2.346
2.367
2.391
2.413
2.451
2.496
2.546
2.581
2.615
2.647
2.691
2.741
2.794
2.842
2.898
2.962
3.045
3.121
3.197
3.265
3.343
3.424
3.515
3.611
3.720
3.833
3.955
4.080
4.213
4.349
4.492
4.641
4.806
4.967
5.136
5.306
5.498
5.695
5.906
6.126
6.358
6.586
6.823
7.063
7.319
7.586
7.870
8.159
8.455
8.753
9.080
9.411
9.776
10.139
10.531
10.926
11.341
11.757
12.195
12.656
13.148
13.655
14.176
14.717
15.292
15.887
16.506
17.136
17.794
18.478
19.186
19.930
20.708
21.532
22.386
23.272
24.178
25.093
26.034
26.989
27.999
29.050
30.143
31.250
32.387
33.548
34.737
35.928
37.135
38.342
39.545
40.731
41.916
43.102
44.269
45.401
46.494
47.561
48.598
49.605
50.577
51.491
52.348
53.138
53.862
54.505
55.066
55.535
55.924
56.224
56.447
56.573
56.607
56.537
56.368
56.103
55.729
55.258
54.712
54.106
53.430
52.672
51.854
50.989
50.065
49.080
48.063
47.020
45.954
44.853
43.726
42.590
41.474
40.403
39.375
38.368
37.389
36.439
35.539
34.661
33.830
33.027
32.258
31.507
30.799
30.135
29.525
28.939
28.376
27.839
27.332
26.837
26.347
25.869
25.427
25.005
24.602
24.218
23.857
23.489
23.130
22.766
22.421
22.062
21.708
21.348
20.994
20.635
20.275
19.902
19.524
19.138
18.747
18.343
17.948
17.555
17.175
16.775
16.374
15.962
15.560
15.151
14.748
14.344
13.955
13.579
13.218
12.853
12.500
12.148
11.821
11.495
11.181
10.860
10.547
10.238
9.948
9.664
9.394
9.129
8.893
8.670
8.454
8.229
8.007
7.784
7.578
7.385
7.227
7.068
6.921
6.758
6.600
6.441
6.283
6.121
5.967
5.825
5.705
5.585
5.469
5.347
5.235
5.118
5.009
4.890
4.786
4.666
4.557
4.440
4.337
4.231
4.132
4.032
3.936
3.848
3.772
3.689
3.605
3.512
3.431
3.344
3.265
3.184
3.110
3.031
2.950
2.873
2.808
2.747
2.694
2.645
2.606
2.560
2.517
2.466
2.417
2.365
2.322
2.286
2.261
2.235
2.206
2.171
2.148
2.129
2.105
2.070
2.040
2.019
1.996
1.970
1.955
1.942
1.926
1.900
1.880
1.862
1.843
1.821
1.804
1.794
1.786
1.778
1.767
1.756
1.744
1.731
1.723
1.707
1.691
1.676
1.670
1.675
1.681
1.685
1.682
1.668
1.654
1.643
1.643
1.640
1.633
1.624
1.617
1.608
1.600
1.594
1.594
1.596
1.593
1.581
1.566
1.557
1.562
1.561
1.557
1.542
1.530
1.517
1.513
1.510
1.510
1.506
1.500
1.492
1.485
1.483
1.484
1.483
1.479
1.470
1.468
1.467
1.468
1.462
1.456
1.452
1.451
1.445
1.441
1.438
1.432
1.421
1.413
1.413
1.415
1.415
1.417
1.419
1.423
1.426
1.426
1.427
1.430
1.430
1.422
1.407
1.396
1.390
1.394
1.400
1.405
1.404
1.406
1.410
1.411
1.402
1.393
1.387
1.390
1.393
1.393
1.384
1.375
1.370
1.373
1.381
1.390
1.395
1.391
1.389
1.385
1.380
1.369
1.361
1.363
1.370
1.376
1.374
1.366
1.358
1.357
1.365
1.373
1.371
1.365
1.357
1.356
1.358
1.364
1.373
1.378
1.379
1.374
1.367
1.361
1.356
1.359
1.367
1.372
1.373
1.367
1.359
1.355
1.362
1.368
1.363
1.354
1.353
1.359
1.362
1.361
1.356
1.354
1.351
1.351
1.349
1.348
1.351
1.358
1.367
1.368
1.369
1.368
1.367
1.363
1.351
1.343
1.340
1.348
1.349
1.345
1.339
1.338
1.338
1.337
1.337
1.341
1.352
1.362
1.363
1.356
1.344
1.333
1.328
1.329
1.334
1.341
1.350
1.366
1.374
1.369
1.355
1.346
1.346
1.352
1.357
1.360
1.360
1.364
1.368
1.370
1.367
1.364
1.360
1.357
1.349
1.343
1.338
1.337
1.341
1.341
1.340
1.337
1.333
1.336
1.340
1.346
1.342
1.338
1.336
1.339
1.340
1.339
1.337
1.336
1.337
1.342
1.351
1.359
1.365
1.362
1.357
1.354
1.354
1.349
1.342
1.343
1.353
1.356
1.349
1.343
1.346
1.350
1.347
1.339
1.332
1.330
1.334
1.344
1.354
1.353
1.348
1.344
1.344
1.339
1.327
1.317
1.314
1.321
1.327
1.332
1.335
1.338
1.334
1.326
1.317
1.320
1.330
1.334
1.329
1.320
1.317
1.323
1.333
1.337
1.337
1.330
1.326
1.321
1.321
1.328
1.338
1.344
1.344
1.338
1.330
1.324
1.325
1.329
1.330
1.332
1.337
1.343
1.343
1.334
1.323
1.317
1.319
1.322
1.320
1.318
1.314
1.314
1.312
1.312
1.312
1.315
1.321
1.326
1.329
1.328
1.327
1.325
1.322
1.322
1.329
1.339
1.345
1.344
1.339
1.331
1.327
1.322
1.327
1.333
1.336
1.330
1.319
1.312
1.309
1.311
1.320
1.332
1.340
1.342
1.339
1.336
1.333
1.326
1.318
1.314
1.320
1.320
1.315
1.309
1.303
1.300
1.302
1.309
1.315
1.315
1.319
1.326
1.338
1.345
1.349
1.348
1.342
1.330
1.316
1.309
1.308
1.314
1.318
1.325
1.326
1.320
1.312
1.306
1.305
1.300
1.295
1.295
1.298
1.301
1.306
1.307
1.301
1.297
1.302
1.315
1.324
1.328
1.324
1.323
1.324
1.328
1.334
1.340
1.342
1.334
1.323
1.317
1.319
1.324
1.327
1.332
1.334
1.330
1.323
1.320
1.319
1.320
1.319
1.316
1.311
1.305
1.305
1.310
1.315
1.313
1.310
1.307
1.312
1.316
1.318
1.320
1.325
1.329
1.327
1.320
1.313
1.312
1.319
1.326
1.326
1.319
1.312
1.309
1.307
1.305
1.307
1.313
1.320
1.327
1.336
1.344
1.337
1.326
1.323
1.334
1.340
1.337
1.333
1.331
1.326
1.319
1.313
1.318
1.326
1.337
1.340
1.338
1.332
1.323
1.312
1.308
1.312
1.319
1.319
1.318
1.316
1.311
1.304
1.302
1.305
1.313
1.315
1.313
1.310
1.311
1.308
1.307
1.309
1.315
1.314
1.305
1.294
1.285
1.279
1.273
1.272
1.281
1.294
1.304
1.308
1.310
1.308
1.302
1.294
1.290
1.294
1.303
1.314
1.321
1.319
1.314
1.308
1.306
1.305
1.306
1.306
1.306
1.305
1.310
1.312
1.313
1.309
1.306
1.304
1.306
1.311
1.315
1.311
1.303
1.295
1.298
1.304
1.311
1.313
1.312
1.309
1.301
1.297
1.296
1.296
1.296
1.296
1.303
1.310
1.319
1.324
1.329
1.328
1.324
1.315
1.303
1.297
1.300
1.313
1.326
1.332
1.329
1.320
1.308
1.299
1.300
1.309
1.317
1.318
1.313
1.303
1.293
1.286
1.286
1.292
1.303
1.311
1.314
1.310
1.310
1.314
1.316
1.320
1.326
1.332
1.329
1.318
1.311
1.312
1.316
1.324
1.331
1.333
1.330
1.326
1.326
1.325
1.322
1.316
1.310
1.305
1.300
1.292
1.284
1.278
1.277
1.282
1.288
1.295
1.299
1.305
1.312
1.313
1.311
1.307
1.309
1.308
1.303
1.297
1.293
1.290
1.292
1.293
1.294
1.293
1.294
1.297
1.297
1.299
1.303
1.310
1.310
1.301
1.289
1.282
1.284
1.290
1.298
1.304
1.305
1.301
1.302
1.300
1.301
1.301
1.306
1.311
1.312
1.316
1.325
1.346
1.364
1.356
1.339
1.323
1.328
1.339
1.365
1.385
1.369
1.332
1.302
1.304
1.311
1.315
1.314
1.305
1.296
1.292
1.297
1.303
1.303
1.298
1.292
1.289
1.289
1.291
1.299
1.307
1.309
1.301
1.296
1.298
1.302
1.308
1.314
1.322
1.324
1.317
1.307
1.304
1.311
1.318
1.317
1.313
1.311
1.312
1.311
1.308
1.299
1.284
1.270
1.263
1.268
1.281
1.295
1.304
1.306
1.303
1.299
1.299
1.301
1.303
1.297
1.286
1.282
1.284
1.290
1.297
1.306
1.310
1.308
1.304
1.302
1.298
1.294
1.288
1.290
1.298
1.307
1.306
1.294
1.282
1.280
1.287
1.300
1.309
1.309
1.304
1.300
1.301
1.303
1.302
1.299
1.295
1.291
1.290
1.293
1.294
1.292
1.290
1.288
1.287
1.284
1.284
1.291
1.296
1.301
1.307
1.312
1.311
1.303
1.294
1.290
1.285
1.281
1.278
1.280
1.284
1.285
1.285
1.291
1.298
1.299
1.294
1.288
1.285
1.284
1.290
1.300
1.301
1.298
1.295
1.299
1.303
1.304
1.302
1.298
1.286
1.276
1.264
1.257
1.249
1.239
1.231
1.229
1.234
1.239
1.236
1.228
1.220
1.218
1.215
1.213
1.212
1.211
1.214
1.216
1.225
1.232
1.237
1.241
1.242
1.244
1.245
1.249
1.255
1.259
1.259
1.252
1.244
1.235
1.231
1.230
1.235
1.233
1.229
1.229
1.233
1.236
1.229
1.220
1.215
1.218
1.224
1.232
1.239
1.245
1.244
1.239
1.233
1.233
1.239
1.239
1.239
1.237
1.233
1.229
1.222
1.220
1.218
1.222
1.225
1.224
1.223
1.228
1.236
1.234
1.224
1.216
1.213
1.217
1.219
1.221
1.218
1.218
1.214
1.214
1.214
1.219
1.229
1.236
1.239
1.239
1.235
1.228
1.219
1.219
1.220
1.221
1.218
1.218
1.221
1.228
1.231
1.228
1.221
1.216
1.219
1.224
1.228
1.232
1.234
1.233
1.231
1.235
1.236
1.232
1.224
1.224
1.228
1.236
1.234
1.228
1.221
1.216
1.214
1.213
1.213
1.212
1.211
1.214
1.218
1.225
1.232
1.235
1.233
1.228
1.226
1.227
1.227
1.226
1.224
1.224
1.226
1.229
1.226
1.227
1.229
1.235
1.235
1.233
1.230
1.228
1.228
1.226
1.225
1.224
1.225
1.229
1.238
1.243
1.241
1.230
1.219
1.216
1.217
1.222
1.227
1.230
1.234
1.237
1.238
1.241
1.242
1.238
1.229
1.223
1.226
1.237
1.243
1.242
1.235
1.228
1.222
1.216
1.217
1.221
1.228
1.232
1.236
1.236
1.230
1.223
1.223
1.227
1.230
1.228
1.225
1.223
1.226
1.229
1.228
1.226
1.224
1.224
1.221
1.217
1.217
1.223
1.225
1.226
1.224
1.227
1.228
1.225
1.217
1.214
1.216
1.224
1.226
1.226
1.221
1.216
1.213
1.217
1.227
1.233
1.229
1.219
1.210
1.209
1.212
1.215
1.218
1.223
1.229
1.230
1.228
1.224
1.221
1.217
1.218
1.223
1.233
1.240
1.243
1.246
1.245
1.242
1.240
1.242
1.245
1.244
1.240
1.236
1.231
1.232
1.234
1.240
1.242
1.242
1.243
1.242
1.244
1.248
1.251
1.248
1.241
1.231
1.221
1.217
1.217
1.220
1.218
1.216
1.215
1.214
1.219
1.224
1.229
1.231
1.233
1.238
1.241
1.240
1.237
1.233
1.228
1.221
1.219
1.224
1.230
1.237
1.239
1.234
1.225
1.217
1.218
1.220
1.223
1.225
1.226
1.223
1.216
1.212
1.214
1.217
1.219
1.220
1.221
1.222
1.226
1.230
1.232
1.236
1.234
1.232
1.231
1.237
1.241
1.236
1.223
1.210
1.208
1.215
1.226
1.237
1.242
1.241
1.232
1.219
1.210
1.206
1.210
1.217
1.217
1.210
1.205
1.206
1.209
1.212
1.217
1.223
1.225
1.229
1.232
1.238
1.241
1.241
1.240
1.241
1.244
1.241
1.232
1.225
1.223
1.225
1.228
1.228
1.228
1.227
1.225
1.224
1.223
1.225
1.221
1.220
1.222
1.230
1.233
1.234
1.228
1.220
1.217
1.219
1.217
1.213
1.213
1.221
1.228
1.233
1.234
1.228
1.217
1.210
1.211
1.215
1.219
1.221
1.225
1.233
1.237
1.235
1.228
1.220
1.214
1.212
1.214
1.219
1.218
1.213
1.204
1.204
1.208
1.216
1.220
1.221
1.219
1.224
1.231
1.238
1.240
1.242
1.242
1.242
1.236
1.233
1.229
1.224
1.223
1.225
1.233
1.239
1.245
1.250
1.257
1.273
1.284
1.269
1.238
1.215
1.218
1.228
1.234
1.234
1.232
1.233
1.234
1.235
1.235
1.236
1.238
1.238
1.235
1.236
1.239
1.243
1.242
1.238
1.227
1.215
1.208
1.211
1.216
1.216
1.214
1.212
1.213
1.214
1.214
1.218
1.226
1.231
1.228
1.221
1.217
1.224
1.237
1.245
1.245
1.237
1.227
1.216
1.213
1.219
1.227
1.232
1.234
1.237
1.233
1.221
1.210
1.207
1.211
1.216
1.214
1.212
1.214
1.218
1.223
1.229
1.236
1.237
1.233
1.226
1.222
1.219
1.217
1.219
1.218
1.220
1.225
1.228
1.229
1.226
1.225
1.229
1.235
1.241
1.244
1.249
1.254
1.256
1.256
1.253
1.248
1.241
1.239
1.238
1.234
1.227
1.219
1.215
1.216
1.219
1.225
1.232
1.237
1.238
1.238
1.240
1.239
1.238
1.233
1.228
1.223
1.221
1.222
1.218
1.215
1.216
1.226
1.236
1.241
1.243
1.245
1.245
1.238
1.232
1.233
1.234
1.234
1.234
1.240
1.244
1.245
1.246
1.240
1.233
1.222
1.215
1.218
1.231
1.251
1.264
1.271
1.268
1.260
1.248
1.238
1.230
1.219
1.208
1.206
1.212
1.220
1.228
1.238
1.242
1.234
1.222
1.214
1.216
1.223
1.232
1.238
1.239
1.239
1.238
1.233
1.227
1.225
1.226
1.228
1.234
1.239
1.236
1.225
1.214
1.212
1.217
1.227
1.231
1.227
1.224
1.227
1.236
1.239
1.239
1.232
1.230
1.226
1.222
1.216
1.217
1.224
1.229
1.226
1.219
1.214
1.215
1.218
1.224
1.232
1.240
1.234
1.227
1.219
1.220
1.218
1.220
1.227
1.239
1.247
1.251
1.247
1.240
1.237
1.236
1.236
1.230
1.219
1.211
1.210
1.218
1.223
1.225
1.223
1.224
1.228
1.233
1.229
1.221
1.215
1.218
1.228
1.240
1.248
1.252
1.248
1.241
1.230
1.220
1.217
1.223
1.234
1.243
1.245
1.240
1.229
1.222
1.222
1.228
1.230
1.232
1.227
1.222
1.216
1.215
1.218
1.224
1.229
1.229
1.227
1.228
1.230
1.235
1.236
1.240
1.242
1.244
1.235
1.225
1.221
1.228
1.240
1.247
1.246
1.242
1.231
1.231
1.235
1.243
1.242
1.237
1.228
1.221
1.213
1.214
1.217
1.222
1.224
1.223
1.221
1.217
1.214
1.213
1.214
1.218
1.223
1.233
1.248
1.262
1.262
1.248
1.231
1.219
1.214
1.219
1.232
1.244
1.245
1.237
1.230
1.234
1.242
1.244
1.240
1.241
1.247
1.257
1.262
1.259
1.250
1.239
1.237
1.238
1.240
1.245
1.246
1.234
1.217
1.203
1.196
1.195
1.202
1.214
1.220
1.221
1.221
1.225
1.232
1.233
1.227
1.220
1.218
1.222
1.223
1.224
1.229
1.234
1.236
1.239
1.239
1.235
1.223
1.214
1.215
1.225
1.232
1.235
1.234
1.239
1.242
1.241
1.240
1.246
1.263
1.274
1.271
1.261
1.248
1.244
1.243
1.247
1.242
1.236
1.236
1.240
1.240
1.234
1.225
1.220
1.218
1.220
1.221
1.222
1.222
1.221
1.223
1.227
1.227
1.221
1.218
1.225
1.234
1.239
1.238
1.236
1.234
1.236
1.241
1.241
1.233
1.228
1.233
1.247
1.249
1.244
1.237
1.241
1.243
1.241
1.235
1.231
1.227
1.221
1.222
1.232
1.247
1.256
1.252
1.239
1.231
1.232
1.238
1.240
1.237
1.228
1.215
1.211
1.214
1.222
1.228
1.235
1.238
1.240
1.241
1.240
1.240
1.245
1.258
1.264
1.254
1.240
1.236
1.247
1.255
1.255
1.246
1.233
1.222
1.220
1.225
1.228
1.224
1.219
1.221
1.229
1.237
1.242
1.244
1.245
1.243
1.236
1.227
1.228
1.235
1.239
1.232
1.228
1.228
1.229
1.228
1.231
1.236
1.240
1.242
1.241
1.235
1.228
1.222
1.221
1.219
1.220
1.220
1.219
1.215
1.212
1.214
1.223
1.226
1.226
1.224
1.230
1.237
1.235
1.227
1.217
1.217
1.222
1.224
1.223
1.218
1.215
1.212
1.210
1.214
1.219
1.225
1.229
1.233
1.238
1.242
1.249
1.254
1.253
1.249
1.247
1.246
1.240
1.228
1.218
1.214
1.219
1.228
1.229
1.226
1.224
1.233
