Wavelength (nm),Intensity B22,,C:/Users/Brend/Desktop/LED Spectras v2/Spectrometer Data (Blue Condensed).sp,,,B22,
379.792,1.991,,2018-06-26 15:22:00,,Integration Time,163 ms,
380.000,1.987,,Analyze Light,,Number of Scans to Average,25,
380.209,1.983,,,,Smoothing,1,
380.418,1.995
380.627,2.014
380.837,2.032
381.048,2.041
381.259,2.042
381.471,2.040
381.683,2.045
381.896,2.059
382.110,2.068
382.324,2.077
382.538,2.091
382.753,2.106
382.969,2.101
383.185,2.091
383.402,2.083
383.619,2.097
383.837,2.115
384.055,2.141
384.274,2.161
384.493,2.174
384.712,2.175
384.932,2.178
385.153,2.181
385.374,2.191
385.596,2.205
385.818,2.229
386.040,2.250
386.263,2.266
386.487,2.272
386.710,2.273
386.935,2.263
387.159,2.258
387.385,2.256
387.610,2.262
387.836,2.267
388.063,2.277
388.289,2.289
388.517,2.300
388.744,2.309
388.972,2.327
389.201,2.343
389.430,2.356
389.659,2.362
389.889,2.371
390.119,2.379
390.349,2.386
390.580,2.393
390.811,2.399
391.042,2.400
391.274,2.405
391.507,2.415
391.739,2.422
391.972,2.422
392.205,2.430
392.439,2.447
392.673,2.466
392.907,2.478
393.142,2.493
393.377,2.507
393.612,2.524
393.848,2.534
394.084,2.544
394.320,2.548
394.557,2.559
394.794,2.568
395.031,2.582
395.269,2.592
395.507,2.603
395.745,2.607
395.983,2.612
396.222,2.618
396.461,2.642
396.700,2.670
396.940,2.694
397.180,2.701
397.420,2.697
397.660,2.690
397.901,2.687
398.142,2.692
398.383,2.702
398.625,2.707
398.866,2.722
399.108,2.750
399.351,2.794
399.593,2.811
399.836,2.811
400.079,2.796
400.322,2.790
400.566,2.784
400.809,2.784
401.053,2.790
401.298,2.805
401.542,2.825
401.787,2.845
402.031,2.858
402.277,2.870
402.522,2.874
402.767,2.886
403.013,2.886
403.259,2.893
403.505,2.890
403.752,2.896
403.998,2.898
404.245,2.919
404.492,2.940
404.739,2.957
404.986,2.967
405.234,2.978
405.482,2.988
405.730,2.990
405.978,2.992
406.226,2.993
406.475,2.986
406.723,2.990
406.972,3.003
407.221,3.031
407.470,3.042
407.720,3.057
407.969,3.051
408.219,3.063
408.469,3.070
408.719,3.089
408.969,3.095
409.219,3.110
409.470,3.125
409.720,3.148
409.971,3.165
410.222,3.189
410.473,3.198
410.724,3.201
410.976,3.202
411.227,3.220
411.479,3.235
411.731,3.249
411.983,3.248
412.235,3.250
412.487,3.244
412.740,3.253
412.992,3.261
413.245,3.275
413.497,3.279
413.750,3.286
414.003,3.284
414.257,3.285
414.510,3.281
414.763,3.292
415.017,3.302
415.270,3.316
415.524,3.320
415.778,3.326
416.032,3.331
416.286,3.351
416.540,3.368
416.794,3.386
417.049,3.387
417.303,3.391
417.558,3.394
417.812,3.395
418.067,3.395
418.322,3.400
418.577,3.399
418.832,3.394
419.088,3.375
419.343,3.373
419.598,3.362
419.854,3.366
420.109,3.365
420.365,3.380
420.621,3.382
420.876,3.393
421.132,3.398
421.388,3.401
421.645,3.396
421.901,3.399
422.157,3.400
422.413,3.406
422.670,3.403
422.926,3.406
423.183,3.398
423.439,3.409
423.696,3.416
423.953,3.449
424.210,3.477
424.467,3.500
424.724,3.501
424.981,3.496
425.238,3.497
425.495,3.522
425.753,3.549
426.010,3.580
426.267,3.597
426.525,3.633
426.782,3.669
427.040,3.711
427.298,3.747
427.555,3.797
427.813,3.836
428.071,3.874
428.329,3.906
428.587,3.956
428.845,4.013
429.103,4.076
429.361,4.131
429.619,4.197
429.878,4.268
430.136,4.356
430.394,4.436
430.653,4.540
430.911,4.655
431.170,4.786
431.428,4.897
431.687,5.006
431.946,5.111
432.204,5.234
432.463,5.364
432.722,5.503
432.981,5.640
433.240,5.796
433.499,5.963
433.758,6.154
434.017,6.332
434.276,6.522
434.535,6.702
434.794,6.901
435.053,7.105
435.312,7.328
435.572,7.559
435.831,7.812
436.090,8.076
436.350,8.351
436.609,8.624
436.869,8.904
437.128,9.201
437.388,9.520
437.647,9.847
437.907,10.190
438.166,10.534
438.426,10.901
438.686,11.277
438.946,11.670
439.205,12.085
439.465,12.531
439.725,13.002
439.985,13.486
440.245,13.967
440.505,14.467
440.765,14.978
441.025,15.508
441.285,16.040
441.545,16.604
441.805,17.187
442.065,17.800
442.325,18.435
442.585,19.108
442.846,19.825
443.106,20.587
443.366,21.394
443.626,22.226
443.887,23.083
444.147,23.961
444.407,24.882
444.668,25.852
444.928,26.863
445.189,27.927
445.449,29.038
445.710,30.206
445.970,31.412
446.231,32.682
446.491,34.030
446.752,35.447
447.012,36.915
447.273,38.432
447.534,39.998
447.794,41.598
448.055,43.251
448.316,44.989
448.577,46.833
448.837,48.750
449.098,50.722
449.359,52.733
449.620,54.760
449.881,56.812
450.142,58.904
450.403,61.074
450.664,63.305
450.924,65.566
451.185,67.821
451.446,70.073
451.707,72.299
451.969,74.512
452.230,76.688
452.491,78.823
452.752,80.866
453.013,82.746
453.274,84.386
453.535,85.757
453.796,86.879
454.058,87.817
454.319,88.638
454.580,89.363
454.841,90.009
455.103,90.556
455.364,91.015
455.625,91.400
455.887,91.708
456.148,91.950
456.409,92.124
456.671,92.240
456.932,92.301
457.194,92.305
457.455,92.267
457.716,92.181
457.978,92.056
458.239,91.884
458.501,91.675
458.763,91.417
459.024,91.108
459.286,90.724
459.547,90.273
459.809,89.734
460.071,89.109
460.332,88.391
460.594,87.578
460.856,86.661
461.117,85.592
461.379,84.349
461.641,82.912
461.903,81.298
462.164,79.563
462.426,77.781
462.688,76.004
462.950,74.242
463.212,72.505
463.474,70.791
463.736,69.101
463.998,67.450
464.260,65.860
464.522,64.362
464.784,62.927
465.046,61.560
465.308,60.262
465.570,59.051
465.832,57.914
466.094,56.832
466.356,55.793
466.618,54.778
466.880,53.786
467.142,52.817
467.405,51.887
467.667,51.019
467.929,50.184
468.191,49.385
468.454,48.585
468.716,47.818
468.978,47.033
469.241,46.244
469.503,45.447
469.765,44.695
470.028,43.963
470.290,43.249
470.552,42.527
470.815,41.818
471.077,41.086
471.340,40.364
471.602,39.633
471.865,38.908
472.128,38.169
472.390,37.441
472.653,36.718
472.915,35.995
473.178,35.267
473.441,34.523
473.703,33.780
473.966,33.019
474.229,32.253
474.492,31.473
474.755,30.694
475.017,29.939
475.280,29.211
475.543,28.495
475.806,27.771
476.069,27.037
476.332,26.312
476.595,25.598
476.858,24.901
477.121,24.216
477.384,23.552
477.647,22.924
477.910,22.306
478.173,21.708
478.436,21.111
478.699,20.546
478.962,20.011
479.226,19.510
479.489,19.008
479.752,18.512
480.015,18.010
480.279,17.525
480.542,17.049
480.805,16.605
481.069,16.181
481.332,15.774
481.595,15.376
481.859,15.024
482.122,14.683
482.386,14.338
482.649,13.972
482.913,13.629
483.177,13.297
483.440,12.981
483.704,12.666
483.967,12.394
484.231,12.140
484.495,11.908
484.759,11.655
485.022,11.390
485.286,11.111
485.550,10.842
485.814,10.561
486.078,10.302
486.342,10.046
486.606,9.834
486.869,9.622
487.133,9.420
487.397,9.208
487.662,9.009
487.926,8.799
488.190,8.596
488.454,8.377
488.718,8.178
488.982,7.963
489.246,7.759
489.511,7.541
489.775,7.340
490.039,7.149
490.304,6.976
490.568,6.793
490.832,6.618
491.097,6.450
491.361,6.299
491.626,6.132
491.890,5.964
492.155,5.802
492.419,5.661
492.684,5.510
492.949,5.365
493.213,5.217
493.478,5.089
493.743,4.953
494.008,4.804
494.272,4.648
494.537,4.516
494.802,4.403
495.067,4.308
495.332,4.212
495.597,4.131
495.862,4.037
496.127,3.945
496.392,3.845
496.657,3.751
496.922,3.655
497.187,3.571
497.452,3.493
497.718,3.438
497.983,3.374
498.248,3.315
498.513,3.243
498.779,3.187
499.044,3.134
499.310,3.071
499.575,2.995
499.841,2.927
500.106,2.876
500.372,2.830
500.637,2.786
500.903,2.754
501.168,2.720
501.434,2.678
501.700,2.617
501.966,2.572
502.231,2.530
502.497,2.499
502.763,2.455
503.029,2.411
503.295,2.373
503.561,2.345
503.827,2.325
504.093,2.305
504.359,2.283
504.625,2.261
504.891,2.228
505.157,2.204
505.423,2.171
505.690,2.140
505.956,2.110
506.222,2.098
506.489,2.103
506.755,2.110
507.021,2.105
507.288,2.088
507.554,2.060
507.821,2.038
508.087,2.019
508.354,2.014
508.621,2.000
508.887,1.981
509.154,1.958
509.421,1.941
509.687,1.920
509.954,1.897
510.221,1.876
510.488,1.875
510.755,1.878
511.022,1.883
511.289,1.866
511.556,1.848
511.823,1.828
512.090,1.828
512.357,1.822
512.624,1.816
512.891,1.800
513.159,1.784
513.426,1.766
513.693,1.752
513.960,1.747
514.228,1.750
514.495,1.755
514.763,1.754
515.030,1.743
515.298,1.726
515.565,1.718
515.833,1.715
516.100,1.715
516.368,1.707
516.636,1.695
516.904,1.691
517.171,1.681
517.439,1.677
517.707,1.665
517.975,1.662
518.243,1.665
518.511,1.665
518.779,1.653
519.047,1.648
519.315,1.645
519.583,1.641
519.851,1.623
520.119,1.611
520.387,1.609
520.656,1.610
520.924,1.612
521.192,1.613
521.461,1.611
521.729,1.614
521.997,1.620
522.266,1.625
522.534,1.624
522.803,1.625
523.071,1.622
523.340,1.610
523.609,1.592
523.877,1.579
524.146,1.578
524.415,1.582
524.684,1.584
524.952,1.575
525.221,1.567
525.490,1.570
525.759,1.584
526.028,1.589
526.297,1.571
526.566,1.555
526.835,1.543
527.104,1.545
527.373,1.547
527.642,1.544
527.912,1.533
528.181,1.520
528.450,1.519
528.719,1.528
528.989,1.549
529.258,1.566
529.528,1.572
529.797,1.560
530.067,1.552
530.336,1.538
530.606,1.527
530.875,1.509
531.145,1.503
531.414,1.511
531.684,1.528
531.954,1.537
532.224,1.531
532.493,1.509
532.763,1.495
533.033,1.494
533.303,1.504
533.573,1.510
533.843,1.503
534.113,1.498
534.383,1.489
534.653,1.490
534.923,1.492
535.193,1.501
535.463,1.518
535.733,1.536
536.004,1.550
536.274,1.550
536.544,1.534
536.814,1.513
537.085,1.496
537.355,1.499
537.626,1.521
537.896,1.539
538.166,1.543
538.437,1.532
538.707,1.523
538.978,1.523
539.249,1.537
539.519,1.544
539.790,1.536
540.061,1.529
540.331,1.540
540.602,1.560
540.873,1.569
541.144,1.569
541.414,1.564
541.685,1.560
541.956,1.554
542.227,1.549
542.498,1.538
542.769,1.529
543.040,1.534
543.311,1.551
543.582,1.570
543.853,1.581
544.124,1.588
544.396,1.591
544.667,1.589
544.938,1.579
545.209,1.545
545.480,1.524
545.752,1.514
546.023,1.531
546.294,1.529
546.566,1.518
546.837,1.496
547.109,1.486
547.380,1.482
547.652,1.484
547.923,1.484
548.195,1.494
548.466,1.512
548.738,1.532
549.009,1.530
549.281,1.515
549.553,1.490
549.824,1.466
550.096,1.450
550.368,1.447
550.640,1.457
550.911,1.471
551.183,1.488
551.455,1.510
551.727,1.526
551.999,1.522
552.271,1.504
552.543,1.482
552.815,1.470
553.087,1.474
553.359,1.487
553.631,1.496
553.903,1.495
554.175,1.491
554.447,1.492
554.719,1.495
554.991,1.496
555.263,1.493
555.535,1.482
555.808,1.472
556.080,1.465
556.352,1.465
556.624,1.465
556.897,1.461
557.169,1.457
557.441,1.451
557.714,1.449
557.986,1.450
558.258,1.451
558.531,1.456
558.803,1.457
559.076,1.460
559.348,1.451
559.621,1.442
559.893,1.441
560.166,1.446
560.438,1.448
560.711,1.442
560.983,1.437
561.256,1.438
561.528,1.447
561.801,1.460
562.074,1.473
562.346,1.482
562.619,1.486
562.892,1.481
563.164,1.472
563.437,1.466
563.710,1.463
563.983,1.454
564.255,1.446
564.528,1.452
564.801,1.468
565.074,1.476
565.346,1.469
565.619,1.462
565.892,1.465
566.165,1.466
566.438,1.452
566.711,1.439
566.984,1.438
567.257,1.446
567.529,1.454
567.802,1.463
568.075,1.475
568.348,1.473
568.621,1.468
568.894,1.461
569.167,1.458
569.440,1.448
569.713,1.434
569.986,1.431
570.259,1.432
570.532,1.439
570.805,1.441
571.078,1.442
571.351,1.444
571.625,1.444
571.898,1.438
572.171,1.424
572.444,1.415
572.717,1.425
572.990,1.441
573.263,1.443
573.536,1.434
573.809,1.419
574.083,1.416
574.356,1.423
574.629,1.437
574.902,1.442
575.175,1.439
575.448,1.426
575.721,1.419
575.995,1.417
576.268,1.420
576.541,1.432
576.814,1.443
577.087,1.452
577.361,1.452
577.634,1.449
577.907,1.437
578.180,1.424
578.453,1.417
578.727,1.422
579.000,1.426
579.273,1.432
579.546,1.444
579.820,1.458
580.093,1.461
580.366,1.449
580.639,1.433
580.913,1.428
581.186,1.426
581.459,1.425
581.732,1.415
582.005,1.409
582.279,1.403
582.552,1.406
582.825,1.411
583.098,1.417
583.372,1.424
583.645,1.427
583.918,1.433
584.191,1.434
584.464,1.432
584.738,1.427
585.011,1.427
585.284,1.428
585.557,1.428
585.831,1.431
586.104,1.445
586.377,1.468
586.650,1.482
586.923,1.481
587.196,1.467
587.470,1.450
587.743,1.438
588.016,1.432
588.289,1.438
588.562,1.448
588.835,1.452
589.109,1.443
589.382,1.427
589.655,1.415
589.928,1.407
590.201,1.405
590.474,1.415
590.747,1.431
591.020,1.444
591.293,1.445
591.567,1.439
591.840,1.429
592.113,1.424
592.386,1.419
592.659,1.413
592.932,1.411
593.205,1.418
593.478,1.424
593.751,1.421
594.024,1.416
594.297,1.411
594.570,1.410
594.843,1.415
595.116,1.422
595.389,1.427
595.662,1.424
595.934,1.426
596.207,1.435
596.480,1.452
596.753,1.466
597.026,1.468
597.299,1.462
597.572,1.454
597.844,1.447
598.117,1.434
598.390,1.421
598.663,1.415
598.936,1.421
599.208,1.426
599.481,1.430
599.754,1.430
600.026,1.419
600.299,1.408
600.572,1.398
600.844,1.396
601.117,1.391
601.390,1.389
601.662,1.391
601.935,1.394
602.207,1.398
602.480,1.407
602.752,1.412
603.025,1.406
603.297,1.397
603.570,1.398
603.842,1.413
604.115,1.429
604.387,1.440
604.660,1.438
604.932,1.434
605.204,1.436
605.477,1.447
605.749,1.459
606.021,1.467
606.294,1.468
606.566,1.459
606.838,1.451
607.110,1.447
607.383,1.454
607.655,1.461
607.927,1.469
608.199,1.473
608.471,1.476
608.743,1.470
609.015,1.463
609.287,1.459
609.559,1.463
609.831,1.470
610.103,1.474
610.375,1.468
610.647,1.454
610.919,1.439
611.191,1.433
611.463,1.435
611.735,1.438
612.007,1.431
612.278,1.425
612.550,1.417
612.822,1.422
613.094,1.431
613.365,1.439
613.637,1.446
613.909,1.442
614.180,1.439
614.452,1.436
614.723,1.430
614.995,1.424
615.266,1.423
615.538,1.434
615.809,1.445
616.081,1.444
616.352,1.432
616.623,1.422
616.895,1.417
617.166,1.412
617.437,1.409
617.709,1.410
617.980,1.418
618.251,1.428
618.522,1.436
618.793,1.450
619.065,1.466
619.336,1.463
619.607,1.445
619.878,1.429
620.149,1.433
620.420,1.438
620.691,1.432
620.962,1.429
621.232,1.436
621.503,1.437
621.774,1.431
622.045,1.423
622.316,1.430
622.586,1.443
622.857,1.456
623.128,1.457
623.398,1.453
623.669,1.447
623.940,1.437
624.210,1.426
624.481,1.426
624.751,1.428
625.021,1.428
625.292,1.418
625.562,1.417
625.833,1.415
626.103,1.410
626.373,1.400
626.643,1.396
626.914,1.400
627.184,1.408
627.454,1.410
627.724,1.409
627.994,1.410
628.264,1.413
628.534,1.411
628.804,1.409
629.074,1.412
629.344,1.419
629.614,1.423
629.884,1.417
630.154,1.407
630.424,1.394
630.693,1.381
630.963,1.368
631.233,1.359
631.502,1.361
631.772,1.378
632.041,1.396
632.311,1.407
632.581,1.408
632.850,1.402
633.119,1.388
633.389,1.374
633.658,1.366
633.928,1.374
634.197,1.386
634.466,1.404
634.735,1.415
635.004,1.414
635.274,1.406
635.543,1.398
635.812,1.398
636.081,1.398
636.350,1.397
636.619,1.396
636.888,1.397
637.157,1.398
637.426,1.402
637.694,1.402
637.963,1.397
638.232,1.389
638.501,1.384
638.769,1.391
639.038,1.403
639.307,1.416
639.575,1.422
639.844,1.419
640.112,1.412
640.381,1.402
640.649,1.401
640.917,1.402
641.186,1.405
641.454,1.407
641.722,1.404
641.991,1.400
642.259,1.388
642.527,1.381
642.795,1.378
643.063,1.373
643.331,1.368
643.599,1.368
643.867,1.379
644.135,1.389
644.403,1.398
644.671,1.402
644.939,1.410
645.206,1.413
645.474,1.418
645.742,1.411
646.009,1.396
646.277,1.383
646.545,1.381
646.812,1.396
647.080,1.415
647.347,1.428
647.615,1.428
647.882,1.414
648.149,1.398
648.417,1.386
648.684,1.386
648.951,1.396
649.219,1.404
649.486,1.406
649.753,1.402
650.020,1.394
650.287,1.384
650.554,1.376
650.821,1.375
651.088,1.378
651.355,1.388
651.622,1.394
651.889,1.399
652.155,1.393
652.422,1.392
652.689,1.396
652.956,1.402
653.222,1.411
653.489,1.428
653.755,1.440
654.022,1.435
654.288,1.414
654.555,1.402
654.821,1.406
655.088,1.414
655.354,1.417
655.620,1.419
655.887,1.421
656.153,1.425
656.419,1.427
656.685,1.426
656.951,1.423
657.217,1.413
657.483,1.402
657.749,1.394
658.015,1.394
658.281,1.397
658.547,1.394
658.813,1.387
659.079,1.379
659.345,1.375
659.610,1.374
659.876,1.377
660.142,1.382
660.407,1.387
660.673,1.390
660.939,1.394
661.204,1.390
661.470,1.386
661.735,1.383
662.000,1.389
662.266,1.392
662.531,1.390
662.796,1.388
663.062,1.384
663.327,1.381
663.592,1.382
663.857,1.387
664.122,1.387
664.388,1.381
664.653,1.377
664.918,1.382
665.183,1.388
665.448,1.397
665.712,1.403
665.977,1.410
666.242,1.407
666.507,1.390
666.772,1.371
667.037,1.357
667.301,1.359
667.566,1.366
667.831,1.373
668.095,1.378
668.360,1.379
668.624,1.374
668.889,1.377
669.153,1.378
669.418,1.382
669.682,1.381
669.946,1.386
670.211,1.396
670.475,1.407
670.739,1.420
671.004,1.432
671.268,1.461
671.532,1.487
671.796,1.480
672.060,1.453
672.324,1.425
672.588,1.428
672.852,1.440
673.116,1.483
673.380,1.523
673.644,1.507
673.908,1.451
674.172,1.398
674.436,1.397
674.700,1.403
674.963,1.410
675.227,1.413
675.491,1.409
675.754,1.402
676.018,1.395
676.282,1.398
676.545,1.398
676.809,1.391
677.072,1.378
677.336,1.369
677.599,1.372
677.863,1.373
678.126,1.379
678.389,1.390
678.653,1.404
678.916,1.409
679.179,1.398
679.442,1.389
679.706,1.392
679.969,1.396
680.232,1.399
680.495,1.404
680.758,1.413
681.021,1.412
681.284,1.397
681.547,1.383
681.810,1.386
682.073,1.404
682.336,1.416
682.599,1.416
682.862,1.411
683.125,1.411
683.388,1.415
683.651,1.415
683.913,1.412
684.176,1.398
684.439,1.382
684.702,1.365
684.964,1.356
685.227,1.361
685.490,1.375
685.752,1.398
686.015,1.408
686.277,1.405
686.540,1.394
686.802,1.385
687.065,1.386
687.327,1.388
687.590,1.385
687.852,1.375
688.115,1.362
688.377,1.357
688.639,1.361
688.902,1.369
689.164,1.376
689.426,1.388
689.689,1.398
689.951,1.399
690.213,1.396
690.475,1.392
690.737,1.389
691.000,1.380
691.262,1.374
691.524,1.381
691.786,1.399
692.048,1.414
692.310,1.413
692.572,1.398
692.834,1.382
693.096,1.375
693.358,1.385
693.620,1.401
693.882,1.414
694.144,1.416
694.406,1.409
694.668,1.402
694.930,1.395
695.192,1.390
695.453,1.388
695.715,1.390
695.977,1.389
696.239,1.382
696.501,1.379
696.762,1.385
697.024,1.391
697.286,1.384
697.548,1.375
697.809,1.370
698.071,1.371
698.333,1.370
698.594,1.370
698.856,1.378
699.118,1.386
699.379,1.389
699.641,1.392
699.902,1.396
700.164,1.401
700.426,1.398
700.687,1.386
700.949,1.377
701.210,1.371
701.472,1.368
701.733,1.362
701.995,1.364
702.256,1.372
702.518,1.381
702.779,1.383
703.041,1.395
703.302,1.408
703.563,1.409
703.825,1.397
704.086,1.385
704.348,1.385
704.609,1.392
704.871,1.401
705.132,1.411
705.393,1.407
705.655,1.401
705.916,1.397
706.177,1.397
706.439,1.399
706.700,1.397
706.961,1.394
707.223,1.387
707.484,1.367
707.745,1.351
708.007,1.336
708.268,1.327
708.529,1.314
708.790,1.297
709.052,1.290
709.313,1.293
709.574,1.302
709.835,1.310
710.097,1.307
710.358,1.293
710.619,1.276
710.881,1.263
711.142,1.256
711.403,1.251
711.664,1.251
711.926,1.247
712.187,1.248
712.448,1.252
712.709,1.263
712.970,1.272
713.232,1.275
713.493,1.277
713.754,1.280
714.015,1.284
714.277,1.291
714.538,1.301
714.799,1.312
715.060,1.314
715.322,1.311
715.583,1.301
715.844,1.293
716.105,1.283
716.367,1.274
716.628,1.273
716.889,1.273
717.150,1.268
717.411,1.258
717.673,1.256
717.934,1.261
718.195,1.268
718.457,1.261
718.718,1.249
718.979,1.243
719.240,1.251
719.502,1.266
719.763,1.277
720.024,1.283
720.286,1.283
720.547,1.276
720.808,1.267
721.069,1.262
721.331,1.267
721.592,1.279
721.853,1.284
722.115,1.285
722.376,1.284
722.638,1.284
722.899,1.284
723.160,1.279
723.422,1.270
723.683,1.261
723.944,1.263
724.206,1.268
724.467,1.271
724.729,1.271
724.990,1.279
725.252,1.285
725.513,1.279
725.775,1.262
726.036,1.247
726.298,1.246
726.559,1.251
726.821,1.257
727.082,1.258
727.344,1.258
727.605,1.257
727.867,1.254
728.128,1.256
728.390,1.259
728.652,1.270
728.913,1.284
729.175,1.291
729.436,1.289
729.698,1.284
729.960,1.279
730.221,1.273
730.483,1.261
730.745,1.259
731.007,1.261
731.268,1.264
731.530,1.263
731.792,1.261
732.054,1.261
732.315,1.266
732.577,1.270
732.839,1.269
733.101,1.260
733.363,1.249
733.625,1.245
733.887,1.248
734.149,1.255
734.411,1.262
734.673,1.267
734.935,1.270
735.197,1.269
735.459,1.275
735.721,1.279
735.983,1.276
736.245,1.262
736.507,1.256
736.769,1.261
737.031,1.270
737.293,1.269
737.555,1.262
737.818,1.254
738.080,1.248
738.342,1.249
738.604,1.251
738.867,1.256
739.129,1.256
739.391,1.255
739.654,1.252
739.916,1.254
740.178,1.261
740.441,1.272
740.703,1.275
740.966,1.270
741.228,1.262
741.491,1.257
741.753,1.262
742.016,1.265
742.278,1.268
742.541,1.271
742.804,1.274
743.066,1.279
743.329,1.277
743.592,1.272
743.854,1.269
744.117,1.272
744.380,1.276
744.643,1.270
744.905,1.260
745.168,1.256
745.431,1.258
745.694,1.258
745.957,1.256
746.220,1.254
746.483,1.252
746.746,1.252
747.009,1.262
747.272,1.283
747.535,1.297
747.798,1.294
748.061,1.275
748.324,1.255
748.588,1.244
748.851,1.242
749.114,1.248
749.377,1.257
749.641,1.261
749.904,1.266
750.167,1.271
750.431,1.275
750.694,1.281
750.958,1.285
751.221,1.284
751.485,1.269
751.748,1.257
752.012,1.260
752.275,1.276
752.539,1.283
752.803,1.279
753.066,1.267
753.330,1.259
753.594,1.258
753.857,1.260
754.121,1.270
754.385,1.279
754.649,1.280
754.913,1.277
755.177,1.277
755.441,1.274
755.705,1.267
755.969,1.256
756.233,1.259
756.497,1.267
756.761,1.267
757.025,1.260
757.289,1.254
757.553,1.255
757.818,1.263
758.082,1.272
758.346,1.281
758.610,1.285
758.875,1.284
759.139,1.279
759.404,1.272
759.668,1.265
759.932,1.268
760.197,1.276
760.462,1.283
760.726,1.280
760.991,1.278
761.255,1.280
761.520,1.279
761.785,1.270
762.049,1.254
762.314,1.246
762.579,1.250
762.844,1.265
763.109,1.274
763.374,1.274
763.639,1.272
763.903,1.268
764.168,1.264
764.433,1.263
764.699,1.271
764.964,1.278
765.229,1.272
765.494,1.257
765.759,1.247
766.024,1.247
766.290,1.255
766.555,1.264
766.820,1.270
767.086,1.273
767.351,1.274
767.616,1.274
767.882,1.274
768.147,1.273
768.413,1.268
768.678,1.259
768.944,1.255
769.209,1.261
769.475,1.272
769.741,1.284
770.006,1.294
770.272,1.298
770.538,1.291
770.804,1.281
771.070,1.275
771.335,1.281
771.601,1.293
771.867,1.299
772.133,1.297
772.399,1.291
772.665,1.281
772.931,1.278
773.197,1.284
773.464,1.296
773.730,1.305
773.996,1.307
774.262,1.307
774.528,1.303
774.795,1.303
775.061,1.309
775.327,1.311
775.594,1.303
775.860,1.286
776.126,1.265
776.393,1.253
776.659,1.247
776.926,1.247
777.193,1.250
777.459,1.252
777.726,1.254
777.992,1.255
778.259,1.254
778.526,1.259
778.793,1.261
779.059,1.268
779.326,1.275
779.593,1.283
779.860,1.288
780.127,1.285
780.394,1.281
780.661,1.277
780.928,1.272
781.195,1.266
781.462,1.259
781.729,1.259
781.996,1.262
782.263,1.265
782.530,1.274
782.797,1.278
783.064,1.274
783.332,1.265
783.599,1.260
783.866,1.266
784.134,1.269
784.401,1.267
784.668,1.264
784.936,1.264
785.203,1.263
785.470,1.256
785.738,1.250
786.005,1.247
786.273,1.245
786.541,1.242
786.808,1.243
787.076,1.246
787.343,1.254
787.611,1.263
787.879,1.274
788.146,1.274
788.414,1.275
788.682,1.270
788.950,1.269
789.217,1.270
789.485,1.284
789.753,1.297
790.021,1.296
790.289,1.277
790.557,1.254
790.825,1.243
791.093,1.249
791.361,1.268
791.629,1.284
791.897,1.292
792.165,1.293
792.433,1.285
792.701,1.267
792.969,1.247
793.237,1.239
793.505,1.248
793.773,1.263
794.042,1.266
794.310,1.260
794.578,1.253
794.846,1.254
795.115,1.254
795.383,1.256
795.651,1.262
795.920,1.270
796.188,1.274
796.456,1.279
796.725,1.281
796.993,1.289
797.261,1.292
797.530,1.289
797.798,1.282
798.067,1.280
798.335,1.284
798.604,1.283
798.872,1.271
799.141,1.259
799.409,1.253
799.678,1.259
799.946,1.267
800.215,1.274
800.483,1.273
800.752,1.270
801.020,1.265
801.289,1.260
801.558,1.260
801.826,1.264
802.095,1.264
802.363,1.261
802.632,1.262
802.901,1.271
803.169,1.278
803.438,1.276
803.707,1.265
803.976,1.255
804.244,1.252
804.513,1.256
804.782,1.252
805.050,1.248
805.319,1.250
805.588,1.261
805.857,1.270
806.125,1.270
806.394,1.263
806.663,1.254
806.931,1.245
807.200,1.241
807.469,1.241
807.738,1.239
808.006,1.241
808.275,1.251
808.544,1.269
808.813,1.282
809.082,1.279
809.350,1.269
809.619,1.264
809.888,1.261
810.157,1.254
810.425,1.245
810.694,1.242
810.963,1.248
811.232,1.250
811.500,1.247
811.769,1.240
812.038,1.243
812.306,1.254
812.575,1.269
812.844,1.277
813.113,1.280
813.381,1.270
813.650,1.267
813.919,1.270
814.187,1.279
814.456,1.286
814.725,1.290
814.993,1.288
815.262,1.284
815.531,1.277
815.799,1.272
816.068,1.264
816.336,1.253
816.605,1.248
816.873,1.253
817.142,1.264
817.411,1.274
817.679,1.281
817.948,1.288
818.216,1.302
818.485,1.334
818.753,1.359
819.021,1.345
819.290,1.303
819.558,1.270
819.827,1.271
820.095,1.282
820.363,1.286
820.632,1.285
820.900,1.284
821.168,1.284
821.437,1.285
821.705,1.282
821.973,1.280
822.241,1.277
822.509,1.278
822.777,1.273
823.046,1.269
823.314,1.271
823.582,1.277
823.850,1.284
824.118,1.288
824.386,1.285
824.654,1.268
824.922,1.250
825.190,1.239
825.457,1.250
825.725,1.263
825.993,1.265
826.261,1.257
826.529,1.254
826.796,1.254
827.064,1.255
827.332,1.252
827.599,1.260
827.867,1.275
828.134,1.285
828.402,1.280
828.669,1.270
828.937,1.264
829.204,1.274
829.471,1.292
829.739,1.302
830.006,1.301
830.273,1.286
830.540,1.274
830.807,1.262
831.075,1.261
831.342,1.269
831.609,1.275
831.876,1.279
832.142,1.282
832.409,1.286
832.676,1.282
832.943,1.268
833.210,1.255
833.476,1.251
833.743,1.258
834.010,1.267
834.276,1.262
834.543,1.248
834.809,1.241
835.076,1.244
835.342,1.252
835.608,1.265
835.874,1.276
836.141,1.277
836.407,1.270
836.673,1.258
836.939,1.252
837.205,1.249
837.471,1.255
837.737,1.262
838.002,1.262
838.268,1.258
838.534,1.257
838.799,1.261
839.065,1.269
839.330,1.273
839.596,1.277
839.861,1.281
840.127,1.285
840.392,1.287
840.657,1.288
840.922,1.295
841.187,1.301
841.452,1.304
841.717,1.299
841.982,1.287
842.247,1.269
842.511,1.257
842.776,1.258
843.041,1.265
843.305,1.262
843.570,1.256
843.834,1.253
844.098,1.253
844.362,1.252
844.627,1.248
844.891,1.247
845.155,1.252
845.419,1.263
845.682,1.272
845.946,1.276
846.210,1.278
846.474,1.275
846.737,1.275
847.001,1.270
847.264,1.258
847.527,1.249
847.790,1.247
848.054,1.251
848.317,1.248
848.580,1.247
848.843,1.253
849.105,1.270
849.368,1.289
849.631,1.297
849.893,1.299
850.156,1.301
850.418,1.300
850.680,1.284
850.943,1.272
851.205,1.273
851.467,1.280
851.729,1.276
851.991,1.271
852.252,1.275
852.514,1.285
852.776,1.289
853.037,1.290
853.298,1.283
853.560,1.271
853.821,1.258
854.082,1.248
854.343,1.253
854.604,1.272
854.865,1.299
855.126,1.315
855.386,1.318
855.647,1.311
855.907,1.300
856.168,1.284
856.428,1.271
856.688,1.264
856.948,1.249
857.208,1.236
857.468,1.233
857.727,1.243
857.987,1.256
858.247,1.267
858.506,1.281
858.765,1.288
859.024,1.279
859.284,1.266
859.543,1.253
859.801,1.250
860.060,1.252
860.319,1.266
860.577,1.277
860.836,1.283
861.094,1.283
861.352,1.281
861.611,1.273
861.869,1.257
862.127,1.249
862.384,1.253
862.642,1.262
862.900,1.277
863.157,1.287
863.414,1.287
863.672,1.272
863.929,1.254
864.186,1.248
864.443,1.253
864.699,1.260
864.956,1.262
865.212,1.252
865.469,1.247
865.725,1.254
865.981,1.267
866.237,1.274
866.493,1.273
866.749,1.264
867.005,1.257
867.260,1.249
867.516,1.244
867.771,1.238
868.026,1.244
868.282,1.260
868.536,1.270
868.791,1.265
869.046,1.249
869.301,1.239
869.555,1.240
869.809,1.251
870.064,1.262
870.318,1.273
870.572,1.281
870.826,1.274
871.079,1.265
871.333,1.257
871.586,1.260
871.840,1.261
872.093,1.258
872.346,1.263
872.599,1.276
872.852,1.293
873.105,1.303
873.357,1.299
873.610,1.286
873.862,1.282
874.114,1.285
874.366,1.293
874.618,1.287
874.870,1.270
875.121,1.252
875.373,1.249
875.624,1.259
875.876,1.262
876.127,1.257
876.378,1.251
876.629,1.253
876.879,1.261
877.130,1.266
877.381,1.262
877.631,1.250
877.881,1.244
878.131,1.254
878.381,1.272
878.631,1.290
878.881,1.296
879.130,1.293
879.380,1.284
879.629,1.278
879.878,1.271
880.127,1.266
880.376,1.266
880.625,1.275
880.873,1.284
881.122,1.289
881.370,1.287
881.618,1.278
881.866,1.267
882.114,1.260
882.362,1.261
882.610,1.269
882.857,1.279
883.105,1.284
883.352,1.275
883.599,1.262
883.846,1.249
884.093,1.246
884.340,1.253
884.586,1.267
884.833,1.278
885.079,1.280
885.325,1.274
885.571,1.270
885.817,1.267
886.063,1.274
886.309,1.280
886.554,1.293
886.800,1.300
887.045,1.301
887.290,1.287
887.535,1.270
887.780,1.265
888.025,1.273
888.270,1.290
888.514,1.305
888.758,1.310
889.003,1.301
889.247,1.277
889.491,1.268
889.735,1.269
889.978,1.283
890.222,1.284
890.465,1.280
890.709,1.272
890.952,1.260
891.195,1.251
891.438,1.245
891.681,1.241
891.923,1.244
892.166,1.250
892.408,1.258
892.651,1.254
892.893,1.245
893.135,1.240
893.377,1.244
893.619,1.255
893.861,1.266
894.102,1.277
894.344,1.292
894.585,1.312
894.826,1.324
895.067,1.314
895.308,1.295
895.549,1.272
895.790,1.257
896.031,1.244
896.271,1.245
896.512,1.258
896.752,1.272
896.992,1.278
897.232,1.275
897.472,1.271
897.712,1.278
897.952,1.292
898.191,1.298
898.431,1.297
898.670,1.299
898.910,1.307
899.149,1.318
899.388,1.323
899.627,1.321
899.866,1.309
900.105,1.292
900.343,1.282
900.582,1.282
900.820,1.291
901.059,1.304
901.297,1.311
901.535,1.298
901.773,1.276
902.011,1.258
902.249,1.246
902.487,1.243
902.725,1.243
902.963,1.252
903.200,1.255
903.438,1.257
903.675,1.264
903.912,1.276
904.150,1.290
904.387,1.294
904.624,1.284
904.861,1.270
905.098,1.256
905.334,1.258
905.571,1.253
905.808,1.254
906.045,1.258
906.281,1.270
906.518,1.274
906.754,1.277
906.990,1.278
907.227,1.280
907.463,1.271
907.699,1.262
907.935,1.263
908.171,1.271
908.407,1.271
908.643,1.267
908.879,1.262
909.115,1.271
909.350,1.279
909.586,1.286
909.822,1.290
910.057,1.303
910.293,1.328
910.528,1.340
910.764,1.335
910.999,1.324
911.235,1.310
911.470,1.307
911.706,1.298
911.941,1.298
912.176,1.288
912.412,1.277
912.647,1.273
912.882,1.278
913.117,1.283
913.352,1.280
913.588,1.273
913.823,1.270
914.058,1.269
914.293,1.272
914.528,1.271
914.763,1.267
914.999,1.262
915.234,1.260
915.469,1.264
915.704,1.268
915.939,1.267
916.174,1.260
916.409,1.257
916.645,1.270
916.880,1.283
917.115,1.291
917.350,1.283
917.586,1.277
917.821,1.274
918.056,1.283
918.292,1.290
918.527,1.289
918.763,1.278
918.998,1.270
919.234,1.277
919.469,1.294
919.705,1.303
919.940,1.301
920.176,1.296
920.412,1.299
920.648,1.298
920.884,1.294
921.120,1.283
921.356,1.275
921.592,1.268
921.828,1.266
922.065,1.267
922.301,1.276
922.537,1.289
922.774,1.295
923.011,1.284
923.247,1.268
923.484,1.267
923.721,1.279
923.958,1.293
924.195,1.295
924.433,1.289
924.670,1.272
924.908,1.255
925.145,1.250
925.383,1.258
925.621,1.268
925.859,1.277
926.097,1.283
926.335,1.286
926.574,1.287
926.813,1.286
927.051,1.285
927.290,1.284
927.529,1.294
927.769,1.313
928.008,1.325
928.248,1.310
928.487,1.287
928.727,1.275
928.967,1.286
929.208,1.298
929.448,1.303
929.689,1.298
929.930,1.287
930.171,1.274
930.413,1.267
930.654,1.267
930.896,1.265
931.138,1.261
931.380,1.255
931.623,1.260
931.865,1.269
932.108,1.282
932.352,1.289
932.595,1.291
932.839,1.293
933.083,1.288
933.327,1.278
933.571,1.267
933.816,1.269
934.061,1.274
934.307,1.274
934.552,1.266
934.798,1.262
935.045,1.265
935.291,1.269
935.538,1.270
935.785,1.273
936.033,1.281
936.281,1.289
936.529,1.295
936.777,1.296
937.026,1.289
937.275,1.283
937.525,1.272
937.775,1.264
938.025,1.255
938.276,1.249
938.527,1.248
938.778,1.248
939.030,1.247
939.282,1.246
939.535,1.250
939.788,1.262
940.041,1.265
940.295,1.260
940.550,1.258
940.804,1.268
941.059,1.278
941.315,1.271
941.571,1.252
941.828,1.238
942.085,1.238
942.342,1.248
942.600,1.255
942.858,1.257
943.117,1.249
943.377,1.240
943.636,1.234
943.897,1.236
944.158,1.245
944.419,1.258
944.681,1.267
944.944,1.274
945.207,1.278
945.470,1.283
945.734,1.288
945.999,1.299
946.264,1.312
946.530,1.315
946.797,1.306
947.064,1.296
947.331,1.290
947.600,1.280
947.869,1.268
948.138,1.256
948.408,1.251
948.679,1.255
948.950,1.263
949.222,1.262
949.495,1.256
949.768,1.257
950.043,1.273
