Wavelength (nm),Intensity B26.3,,Untitled.sp,,,B26.3,
379.792,1.918,,2018-06-14 14:00:43,,Integration Time,128 ms,
380.000,1.915,,Analyze Light,,Number of Scans to Average,25,
380.209,1.914,,,,Smoothing,1,
380.418,1.929
380.627,1.950
380.837,1.964
381.048,1.967
381.259,1.961
381.471,1.958
381.683,1.960
381.896,1.971
382.110,1.977
382.324,1.988
382.538,2.002
382.753,2.015
382.969,2.014
383.185,2.002
383.402,1.995
383.619,1.999
383.837,2.012
384.055,2.031
384.274,2.048
384.493,2.057
384.712,2.056
384.932,2.058
385.153,2.064
385.374,2.074
385.596,2.084
385.818,2.105
386.040,2.127
386.263,2.144
386.487,2.148
386.710,2.144
386.935,2.132
387.159,2.125
387.385,2.119
387.610,2.120
387.836,2.126
388.063,2.138
388.289,2.147
388.517,2.151
388.744,2.150
388.972,2.162
389.201,2.171
389.430,2.183
389.659,2.185
389.889,2.192
390.119,2.197
390.349,2.205
390.580,2.214
390.811,2.220
391.042,2.223
391.274,2.225
391.507,2.229
391.739,2.229
391.972,2.224
392.205,2.229
392.439,2.244
392.673,2.265
392.907,2.278
393.142,2.290
393.377,2.299
393.612,2.308
393.848,2.312
394.084,2.318
394.320,2.323
394.557,2.332
394.794,2.337
395.031,2.345
395.269,2.354
395.507,2.365
395.745,2.371
395.983,2.378
396.222,2.386
396.461,2.403
396.700,2.424
396.940,2.441
397.180,2.452
397.420,2.451
397.660,2.447
397.901,2.444
398.142,2.447
398.383,2.450
398.625,2.446
398.866,2.447
399.108,2.463
399.351,2.493
399.593,2.508
399.836,2.510
400.079,2.496
400.322,2.490
400.566,2.481
400.809,2.480
401.053,2.482
401.298,2.491
401.542,2.505
401.787,2.523
402.031,2.536
402.277,2.547
402.522,2.551
402.767,2.559
403.013,2.557
403.259,2.561
403.505,2.566
403.752,2.576
403.998,2.577
404.245,2.586
404.492,2.598
404.739,2.609
404.986,2.613
405.234,2.618
405.482,2.622
405.730,2.626
405.978,2.634
406.226,2.640
406.475,2.635
406.723,2.629
406.972,2.636
407.221,2.655
407.470,2.667
407.720,2.671
407.969,2.668
408.219,2.679
408.469,2.692
408.719,2.707
408.969,2.711
409.219,2.716
409.470,2.726
409.720,2.744
409.971,2.756
410.222,2.769
410.473,2.768
410.724,2.770
410.976,2.773
411.227,2.791
411.479,2.804
411.731,2.816
411.983,2.814
412.235,2.812
412.487,2.804
412.740,2.808
412.992,2.817
413.245,2.830
413.497,2.831
413.750,2.830
414.003,2.827
414.257,2.828
414.510,2.832
414.763,2.844
415.017,2.859
415.270,2.874
415.524,2.877
415.778,2.875
416.032,2.874
416.286,2.885
416.540,2.896
416.794,2.907
417.049,2.909
417.303,2.915
417.558,2.920
417.812,2.923
418.067,2.926
418.322,2.930
418.577,2.929
418.832,2.923
419.088,2.907
419.343,2.909
419.598,2.907
419.854,2.919
420.109,2.924
420.365,2.942
420.621,2.950
420.876,2.961
421.132,2.966
421.388,2.970
421.645,2.967
421.901,2.968
422.157,2.968
422.413,2.973
422.670,2.974
422.926,2.980
423.183,2.978
423.439,2.989
423.696,3.003
423.953,3.040
424.210,3.066
424.467,3.081
424.724,3.075
424.981,3.067
425.238,3.072
425.495,3.099
425.753,3.130
426.010,3.158
426.267,3.176
426.525,3.210
426.782,3.241
427.040,3.276
427.298,3.308
427.555,3.354
427.813,3.393
428.071,3.430
428.329,3.466
428.587,3.509
428.845,3.558
429.103,3.614
429.361,3.676
429.619,3.745
429.878,3.813
430.136,3.887
430.394,3.956
430.653,4.047
430.911,4.146
431.170,4.254
431.428,4.347
431.687,4.445
431.946,4.545
432.204,4.667
432.463,4.794
432.722,4.928
432.981,5.055
433.240,5.203
433.499,5.358
433.758,5.536
434.017,5.702
434.276,5.876
434.535,6.043
434.794,6.232
435.053,6.430
435.312,6.650
435.572,6.865
435.831,7.100
436.090,7.343
436.350,7.612
436.609,7.885
436.869,8.171
437.128,8.447
437.388,8.734
437.647,9.031
437.907,9.369
438.166,9.714
438.426,10.065
438.686,10.405
438.946,10.780
439.205,11.181
439.465,11.613
439.725,12.051
439.985,12.497
440.245,12.935
440.505,13.384
440.765,13.847
441.025,14.326
441.285,14.814
441.545,15.318
441.805,15.847
442.065,16.391
442.325,16.957
442.585,17.558
442.846,18.184
443.106,18.842
443.366,19.516
443.626,20.212
443.887,20.917
444.147,21.641
444.407,22.387
444.668,23.171
444.928,23.982
445.189,24.857
445.449,25.774
445.710,26.745
445.970,27.749
446.231,28.808
446.491,29.917
446.752,31.078
447.012,32.279
447.273,33.545
447.534,34.860
447.794,36.218
448.055,37.619
448.316,39.106
448.577,40.693
448.837,42.370
449.098,44.109
449.359,45.894
449.620,47.728
449.881,49.615
450.142,51.550
450.403,53.571
450.664,55.693
450.924,57.908
451.185,60.174
451.446,62.459
451.707,64.757
451.969,67.078
452.230,69.414
452.491,71.773
452.752,74.089
453.013,76.383
453.274,78.611
453.535,80.771
453.796,82.729
454.058,84.430
454.319,85.840
454.580,87.007
454.841,87.981
455.103,88.823
455.364,89.557
455.625,90.217
455.887,90.772
456.148,91.235
456.409,91.587
456.671,91.851
456.932,92.038
457.194,92.161
457.455,92.231
457.716,92.241
457.978,92.192
458.239,92.088
458.501,91.934
458.763,91.722
459.024,91.455
459.286,91.114
459.547,90.696
459.809,90.181
460.071,89.564
460.332,88.868
460.594,88.078
460.856,87.196
461.117,86.146
461.379,84.888
461.641,83.387
461.903,81.683
462.164,79.842
462.426,77.936
462.688,76.009
462.950,74.094
463.212,72.187
463.474,70.305
463.736,68.467
463.998,66.724
464.260,65.065
464.522,63.496
464.784,61.991
465.046,60.576
465.308,59.241
465.570,57.992
465.832,56.793
466.094,55.633
466.356,54.520
466.618,53.453
466.880,52.429
467.142,51.461
467.405,50.557
467.667,49.717
467.929,48.901
468.191,48.125
468.454,47.354
468.716,46.597
468.978,45.823
469.241,45.065
469.503,44.330
469.765,43.634
470.028,42.967
470.290,42.295
470.552,41.618
470.815,40.932
471.077,40.255
471.340,39.573
471.602,38.884
471.865,38.189
472.128,37.489
472.390,36.795
472.653,36.091
472.915,35.381
473.178,34.653
473.441,33.922
473.703,33.177
473.966,32.427
474.229,31.655
474.492,30.882
474.755,30.090
475.017,29.326
475.280,28.566
475.543,27.835
475.806,27.087
476.069,26.337
476.332,25.583
476.595,24.853
476.858,24.146
477.121,23.459
477.384,22.791
477.647,22.136
477.910,21.507
478.173,20.887
478.436,20.285
478.699,19.709
478.962,19.154
479.226,18.635
479.489,18.117
479.752,17.621
480.015,17.130
480.279,16.664
480.542,16.205
480.805,15.762
481.069,15.325
481.332,14.916
481.595,14.536
481.859,14.192
482.122,13.854
482.386,13.523
482.649,13.189
482.913,12.871
483.177,12.555
483.440,12.254
483.704,11.967
483.967,11.708
484.231,11.458
484.495,11.223
484.759,10.986
485.022,10.745
485.286,10.496
485.550,10.264
485.814,10.021
486.078,9.789
486.342,9.543
486.606,9.328
486.869,9.114
487.133,8.925
487.397,8.739
487.662,8.554
487.926,8.355
488.190,8.157
488.454,7.948
488.718,7.756
488.982,7.558
489.246,7.380
489.511,7.187
489.775,7.002
490.039,6.813
490.304,6.630
490.568,6.439
490.832,6.262
491.097,6.102
491.361,5.961
491.626,5.809
491.890,5.656
492.155,5.495
492.419,5.350
492.684,5.200
492.949,5.060
493.213,4.919
493.478,4.792
493.743,4.652
494.008,4.506
494.272,4.361
494.537,4.245
494.802,4.143
495.067,4.054
495.332,3.965
495.597,3.884
495.862,3.792
496.127,3.701
496.392,3.604
496.657,3.520
496.922,3.433
497.187,3.361
497.452,3.295
497.718,3.244
497.983,3.183
498.248,3.114
498.513,3.038
498.779,2.983
499.044,2.939
499.310,2.892
499.575,2.832
499.841,2.780
500.106,2.732
500.372,2.685
500.637,2.640
500.903,2.613
501.168,2.588
501.434,2.549
501.700,2.502
501.966,2.464
502.231,2.433
502.497,2.407
502.763,2.370
503.029,2.338
503.295,2.306
503.561,2.281
503.827,2.257
504.093,2.238
504.359,2.219
504.625,2.201
504.891,2.176
505.157,2.161
505.423,2.140
505.690,2.121
505.956,2.094
506.222,2.077
506.489,2.071
506.755,2.072
507.021,2.065
507.288,2.056
507.554,2.040
507.821,2.026
508.087,2.011
508.354,2.004
508.621,1.996
508.887,1.981
509.154,1.962
509.421,1.941
509.687,1.918
509.954,1.898
510.221,1.883
510.488,1.882
510.755,1.884
511.022,1.888
511.289,1.875
511.556,1.857
511.823,1.839
512.090,1.838
512.357,1.835
512.624,1.831
512.891,1.818
513.159,1.806
513.426,1.795
513.693,1.786
513.960,1.782
514.228,1.780
514.495,1.777
514.763,1.771
515.030,1.759
515.298,1.748
515.565,1.746
515.833,1.746
516.100,1.742
516.368,1.733
516.636,1.724
516.904,1.721
517.171,1.714
517.439,1.711
517.707,1.705
517.975,1.704
518.243,1.704
518.511,1.701
518.779,1.687
519.047,1.682
519.315,1.679
519.583,1.677
519.851,1.662
520.119,1.652
520.387,1.649
520.656,1.650
520.924,1.650
521.192,1.652
521.461,1.657
521.729,1.662
521.997,1.663
522.266,1.660
522.534,1.655
522.803,1.652
523.071,1.650
523.340,1.641
523.609,1.630
523.877,1.623
524.146,1.622
524.415,1.626
524.684,1.628
524.952,1.624
525.221,1.620
525.490,1.623
525.759,1.633
526.028,1.636
526.297,1.625
526.566,1.611
526.835,1.601
527.104,1.601
527.373,1.605
527.642,1.605
527.912,1.598
528.181,1.592
528.450,1.592
528.719,1.601
528.989,1.613
529.258,1.623
529.528,1.621
529.797,1.611
530.067,1.603
530.336,1.601
530.606,1.602
530.875,1.597
531.145,1.594
531.414,1.594
531.684,1.599
531.954,1.598
532.224,1.593
532.493,1.576
532.763,1.567
533.033,1.566
533.303,1.573
533.573,1.577
533.843,1.570
534.113,1.562
534.383,1.551
534.653,1.551
534.923,1.554
535.193,1.562
535.463,1.573
535.733,1.583
536.004,1.590
536.274,1.591
536.544,1.582
536.814,1.570
537.085,1.556
537.355,1.560
537.626,1.575
537.896,1.590
538.166,1.591
538.437,1.588
538.707,1.586
538.978,1.590
539.249,1.596
539.519,1.596
539.790,1.583
540.061,1.572
540.331,1.574
540.602,1.589
540.873,1.601
541.144,1.607
541.414,1.607
541.685,1.608
541.956,1.601
542.227,1.594
542.498,1.585
542.769,1.582
543.040,1.587
543.311,1.598
543.582,1.610
543.853,1.614
544.124,1.617
544.396,1.621
544.667,1.625
544.938,1.621
545.209,1.602
545.480,1.587
545.752,1.579
546.023,1.587
546.294,1.583
546.566,1.571
546.837,1.555
547.109,1.547
547.380,1.547
547.652,1.544
547.923,1.544
548.195,1.552
548.466,1.566
548.738,1.579
549.009,1.574
549.281,1.559
549.553,1.542
549.824,1.524
550.096,1.517
550.368,1.511
550.640,1.510
550.911,1.517
551.183,1.537
551.455,1.566
551.727,1.582
551.999,1.576
552.271,1.560
552.543,1.545
552.815,1.534
553.087,1.534
553.359,1.539
553.631,1.545
553.903,1.544
554.175,1.546
554.447,1.553
554.719,1.559
554.991,1.561
555.263,1.558
555.535,1.549
555.808,1.539
556.080,1.529
556.352,1.525
556.624,1.523
556.897,1.518
557.169,1.516
557.441,1.514
557.714,1.512
557.986,1.509
558.258,1.504
558.531,1.512
558.803,1.522
559.076,1.529
559.348,1.521
559.621,1.510
559.893,1.511
560.166,1.514
560.438,1.513
560.711,1.506
560.983,1.509
561.256,1.521
561.528,1.538
561.801,1.549
562.074,1.558
562.346,1.565
562.619,1.571
562.892,1.569
563.164,1.562
563.437,1.557
563.710,1.549
563.983,1.534
564.255,1.513
564.528,1.518
564.801,1.534
565.074,1.552
565.346,1.547
565.619,1.539
565.892,1.534
566.165,1.530
566.438,1.518
566.711,1.506
566.984,1.503
567.257,1.505
567.529,1.512
567.802,1.528
568.075,1.544
568.348,1.545
568.621,1.537
568.894,1.527
569.167,1.523
569.440,1.516
569.713,1.500
569.986,1.491
570.259,1.486
570.532,1.499
570.805,1.512
571.078,1.523
571.351,1.528
571.625,1.526
571.898,1.519
572.171,1.506
572.444,1.495
572.717,1.499
572.990,1.510
573.263,1.511
573.536,1.497
573.809,1.477
574.083,1.468
574.356,1.471
574.629,1.486
574.902,1.500
575.175,1.504
575.448,1.497
575.721,1.491
575.995,1.488
576.268,1.487
576.541,1.495
576.814,1.507
577.087,1.521
577.361,1.528
577.634,1.526
577.907,1.513
578.180,1.495
578.453,1.485
578.727,1.490
579.000,1.494
579.273,1.501
579.546,1.515
579.820,1.536
580.093,1.541
580.366,1.532
580.639,1.514
580.913,1.504
581.186,1.497
581.459,1.493
581.732,1.482
582.005,1.477
582.279,1.471
582.552,1.471
582.825,1.469
583.098,1.472
583.372,1.479
583.645,1.489
583.918,1.497
584.191,1.498
584.464,1.494
584.738,1.492
585.011,1.492
585.284,1.491
585.557,1.488
585.831,1.492
586.104,1.506
586.377,1.528
586.650,1.541
586.923,1.543
587.196,1.533
587.470,1.518
587.743,1.507
588.016,1.498
588.289,1.500
588.562,1.510
588.835,1.513
589.109,1.504
589.382,1.488
589.655,1.477
589.928,1.473
590.201,1.471
590.474,1.481
590.747,1.496
591.020,1.513
591.293,1.519
591.567,1.517
591.840,1.506
592.113,1.497
592.386,1.486
592.659,1.478
592.932,1.476
593.205,1.482
593.478,1.488
593.751,1.482
594.024,1.475
594.297,1.465
594.570,1.465
594.843,1.473
595.116,1.486
595.389,1.495
595.662,1.495
595.934,1.499
596.207,1.506
596.480,1.512
596.753,1.517
597.026,1.514
597.299,1.511
597.572,1.506
597.844,1.501
598.117,1.492
598.390,1.483
598.663,1.476
598.936,1.478
599.208,1.484
599.481,1.490
599.754,1.493
600.026,1.483
600.299,1.474
600.572,1.469
600.844,1.469
601.117,1.466
601.390,1.461
601.662,1.458
601.935,1.456
602.207,1.454
602.480,1.459
602.752,1.465
603.025,1.465
603.297,1.463
603.570,1.469
603.842,1.484
604.115,1.494
604.387,1.502
604.660,1.500
604.932,1.496
605.204,1.497
605.477,1.506
605.749,1.523
606.021,1.533
606.294,1.532
606.566,1.512
606.838,1.500
607.110,1.499
607.383,1.513
607.655,1.525
607.927,1.537
608.199,1.548
608.471,1.555
608.743,1.549
609.015,1.540
609.287,1.529
609.559,1.530
609.831,1.530
610.103,1.531
610.375,1.525
610.647,1.515
610.919,1.500
611.191,1.493
611.463,1.496
611.735,1.501
612.007,1.494
612.278,1.481
612.550,1.474
612.822,1.479
613.094,1.488
613.365,1.492
613.637,1.494
613.909,1.495
614.180,1.496
614.452,1.495
614.723,1.490
614.995,1.483
615.266,1.483
615.538,1.496
615.809,1.507
616.081,1.505
616.352,1.490
616.623,1.480
616.895,1.475
617.166,1.474
617.437,1.471
617.709,1.471
617.980,1.475
618.251,1.484
618.522,1.495
618.793,1.514
619.065,1.530
619.336,1.522
619.607,1.500
619.878,1.488
620.149,1.499
620.420,1.505
620.691,1.496
620.962,1.491
621.232,1.497
621.503,1.499
621.774,1.495
622.045,1.488
622.316,1.495
622.586,1.507
622.857,1.519
623.128,1.519
623.398,1.513
623.669,1.503
623.940,1.494
624.210,1.487
624.481,1.488
624.751,1.490
625.021,1.488
625.292,1.480
625.562,1.478
625.833,1.476
626.103,1.475
626.373,1.470
626.643,1.470
626.914,1.475
627.184,1.483
627.454,1.487
627.724,1.483
627.994,1.480
628.264,1.477
628.534,1.472
628.804,1.468
629.074,1.471
629.344,1.478
629.614,1.484
629.884,1.478
630.154,1.466
630.424,1.453
630.693,1.442
630.963,1.433
631.233,1.426
631.502,1.429
631.772,1.444
632.041,1.458
632.311,1.465
632.581,1.467
632.850,1.466
633.119,1.459
633.389,1.446
633.658,1.435
633.928,1.436
634.197,1.444
634.466,1.457
634.735,1.467
635.004,1.468
635.274,1.463
635.543,1.456
635.812,1.455
636.081,1.455
636.350,1.458
636.619,1.463
636.888,1.464
637.157,1.467
637.426,1.473
637.694,1.478
637.963,1.478
638.232,1.472
638.501,1.464
638.769,1.463
639.038,1.467
639.307,1.480
639.575,1.485
639.844,1.481
640.112,1.469
640.381,1.456
640.649,1.450
640.917,1.451
641.186,1.454
641.454,1.460
641.722,1.462
641.991,1.464
642.259,1.456
642.527,1.449
642.795,1.447
643.063,1.444
643.331,1.442
643.599,1.439
643.867,1.447
644.135,1.453
644.403,1.459
644.671,1.462
644.939,1.467
645.206,1.470
645.474,1.474
645.742,1.468
646.009,1.456
646.277,1.448
646.545,1.449
646.812,1.464
647.080,1.478
647.347,1.486
647.615,1.480
647.882,1.465
648.149,1.453
648.417,1.445
648.684,1.446
648.951,1.458
649.219,1.471
649.486,1.475
649.753,1.468
650.020,1.456
650.287,1.447
650.554,1.439
650.821,1.436
651.088,1.439
651.355,1.449
651.622,1.456
651.889,1.459
652.155,1.453
652.422,1.452
652.689,1.458
652.956,1.464
653.222,1.474
653.489,1.491
653.755,1.502
654.022,1.498
654.288,1.478
654.555,1.468
654.821,1.467
655.088,1.472
655.354,1.476
655.620,1.482
655.887,1.486
656.153,1.488
656.419,1.485
656.685,1.484
656.951,1.485
657.217,1.483
657.483,1.474
657.749,1.462
658.015,1.457
658.281,1.454
658.547,1.453
658.813,1.447
659.079,1.443
659.345,1.438
659.610,1.439
659.876,1.439
660.142,1.440
660.407,1.439
660.673,1.442
660.939,1.452
661.204,1.457
661.470,1.455
661.735,1.449
662.000,1.450
662.266,1.447
662.531,1.446
662.796,1.442
663.062,1.440
663.327,1.436
663.592,1.434
663.857,1.437
664.122,1.440
664.388,1.443
664.653,1.447
664.918,1.455
665.183,1.457
665.448,1.460
665.712,1.464
665.977,1.471
666.242,1.472
666.507,1.458
666.772,1.444
667.037,1.432
667.301,1.432
667.566,1.434
667.831,1.440
668.095,1.447
668.360,1.453
668.624,1.451
668.889,1.452
669.153,1.448
669.418,1.447
669.682,1.440
669.946,1.443
670.211,1.451
670.475,1.460
670.739,1.469
671.004,1.484
671.268,1.516
671.532,1.550
671.796,1.539
672.060,1.511
672.324,1.480
672.588,1.486
672.852,1.502
673.116,1.542
673.380,1.581
673.644,1.563
673.908,1.512
674.172,1.464
674.436,1.463
674.700,1.467
674.963,1.469
675.227,1.466
675.491,1.459
675.754,1.451
676.018,1.448
676.282,1.453
676.545,1.457
676.809,1.454
677.072,1.447
677.336,1.441
677.599,1.443
677.863,1.440
678.126,1.442
678.389,1.450
678.653,1.465
678.916,1.471
679.179,1.462
679.442,1.455
679.706,1.457
679.969,1.461
680.232,1.466
680.495,1.472
680.758,1.481
681.021,1.479
681.284,1.467
681.547,1.456
681.810,1.457
682.073,1.468
682.336,1.473
682.599,1.470
682.862,1.463
683.125,1.462
683.388,1.466
683.651,1.469
683.913,1.468
684.176,1.458
684.439,1.448
684.702,1.439
684.964,1.435
685.227,1.438
685.490,1.449
685.752,1.465
686.015,1.469
686.277,1.461
686.540,1.449
686.802,1.442
687.065,1.443
687.327,1.447
687.590,1.448
687.852,1.442
688.115,1.434
688.377,1.431
688.639,1.435
688.902,1.438
689.164,1.442
689.426,1.449
689.689,1.455
689.951,1.456
690.213,1.454
690.475,1.450
690.737,1.445
691.000,1.437
691.262,1.436
691.524,1.446
691.786,1.462
692.048,1.473
692.310,1.470
692.572,1.455
692.834,1.439
693.096,1.436
693.358,1.445
693.620,1.462
693.882,1.476
694.144,1.482
694.406,1.475
694.668,1.465
694.930,1.455
695.192,1.452
695.453,1.453
695.715,1.457
695.977,1.455
696.239,1.450
696.501,1.446
696.762,1.449
697.024,1.452
697.286,1.447
697.548,1.441
697.809,1.439
698.071,1.439
698.333,1.438
698.594,1.437
698.856,1.441
699.118,1.445
699.379,1.450
699.641,1.458
699.902,1.467
700.164,1.470
700.426,1.467
700.687,1.456
700.949,1.452
701.210,1.449
701.472,1.447
701.733,1.440
701.995,1.437
702.256,1.436
702.518,1.436
702.779,1.437
703.041,1.448
703.302,1.461
703.563,1.463
703.825,1.455
704.086,1.445
704.348,1.441
704.609,1.444
704.871,1.454
705.132,1.465
705.393,1.463
705.655,1.456
705.916,1.451
706.177,1.450
706.439,1.449
706.700,1.446
706.961,1.445
707.223,1.442
707.484,1.429
707.745,1.415
708.007,1.401
708.268,1.390
708.529,1.379
708.790,1.364
709.052,1.358
709.313,1.361
709.574,1.369
709.835,1.372
710.097,1.364
710.358,1.351
710.619,1.337
710.881,1.325
711.142,1.315
711.403,1.310
711.664,1.308
711.926,1.307
712.187,1.311
712.448,1.319
712.709,1.329
712.970,1.336
713.232,1.340
713.493,1.344
713.754,1.347
714.015,1.353
714.277,1.359
714.538,1.367
714.799,1.378
715.060,1.387
715.322,1.386
715.583,1.372
715.844,1.354
716.105,1.340
716.367,1.332
716.628,1.332
716.889,1.333
717.150,1.328
717.411,1.318
717.673,1.316
717.934,1.322
718.195,1.333
718.457,1.330
718.718,1.320
718.979,1.314
719.240,1.322
719.502,1.335
719.763,1.344
720.024,1.345
720.286,1.343
720.547,1.335
720.808,1.328
721.069,1.325
721.331,1.330
721.592,1.341
721.853,1.347
722.115,1.349
722.376,1.349
722.638,1.349
722.899,1.349
723.160,1.343
723.422,1.335
723.683,1.326
723.944,1.328
724.206,1.330
724.467,1.330
724.729,1.326
724.990,1.329
725.252,1.333
725.513,1.330
725.775,1.316
726.036,1.303
726.298,1.300
726.559,1.307
726.821,1.313
727.082,1.318
727.344,1.319
727.605,1.318
727.867,1.315
728.128,1.314
728.390,1.314
728.652,1.323
728.913,1.338
729.175,1.351
729.436,1.353
729.698,1.351
729.960,1.345
730.221,1.337
730.483,1.321
730.745,1.314
731.007,1.312
731.268,1.315
731.530,1.319
731.792,1.322
732.054,1.326
732.315,1.329
732.577,1.329
732.839,1.322
733.101,1.314
733.363,1.312
733.625,1.317
733.887,1.323
734.149,1.325
734.411,1.327
734.673,1.329
734.935,1.332
735.197,1.333
735.459,1.336
735.721,1.338
735.983,1.336
736.245,1.324
736.507,1.319
736.769,1.323
737.031,1.332
737.293,1.327
737.555,1.316
737.818,1.307
738.080,1.302
738.342,1.303
738.604,1.304
738.867,1.306
739.129,1.306
739.391,1.305
739.654,1.306
739.916,1.307
740.178,1.311
740.441,1.316
740.703,1.317
740.966,1.313
741.228,1.309
741.491,1.309
741.753,1.315
742.016,1.318
742.278,1.320
742.541,1.318
742.804,1.319
743.066,1.326
743.329,1.334
743.592,1.333
743.854,1.331
744.117,1.334
744.380,1.340
744.643,1.336
744.905,1.328
745.168,1.323
745.431,1.316
745.694,1.312
745.957,1.308
746.220,1.309
746.483,1.310
746.746,1.312
747.009,1.324
747.272,1.342
747.535,1.358
747.798,1.356
748.061,1.338
748.324,1.318
748.588,1.310
748.851,1.311
749.114,1.312
749.377,1.314
749.641,1.314
749.904,1.320
750.167,1.328
750.431,1.336
750.694,1.342
750.958,1.345
751.221,1.342
751.485,1.330
751.748,1.319
752.012,1.323
752.275,1.342
752.539,1.354
752.803,1.351
753.066,1.335
753.330,1.322
753.594,1.315
753.857,1.315
754.121,1.320
754.385,1.328
754.649,1.336
754.913,1.340
755.177,1.343
755.441,1.336
755.705,1.322
755.969,1.309
756.233,1.312
756.497,1.320
756.761,1.322
757.025,1.319
757.289,1.314
757.553,1.313
757.818,1.316
758.082,1.324
758.346,1.331
758.610,1.336
758.875,1.336
759.139,1.331
759.404,1.324
759.668,1.319
759.932,1.322
760.197,1.330
760.462,1.333
760.726,1.328
760.991,1.323
761.255,1.324
761.520,1.325
761.785,1.320
762.049,1.309
762.314,1.300
762.579,1.302
762.844,1.316
763.109,1.328
763.374,1.331
763.639,1.329
763.903,1.326
764.168,1.324
764.433,1.326
764.699,1.334
764.964,1.337
765.229,1.331
765.494,1.318
765.759,1.312
766.024,1.313
766.290,1.321
766.555,1.328
766.820,1.332
767.086,1.335
767.351,1.337
767.616,1.338
767.882,1.334
768.147,1.326
768.413,1.316
768.678,1.311
768.944,1.313
769.209,1.320
769.475,1.331
769.741,1.343
770.006,1.354
770.272,1.358
770.538,1.355
770.804,1.349
771.070,1.343
771.335,1.345
771.601,1.351
771.867,1.355
772.133,1.353
772.399,1.348
772.665,1.338
772.931,1.335
773.197,1.338
773.464,1.348
773.730,1.355
773.996,1.355
774.262,1.354
774.528,1.350
774.795,1.349
775.061,1.353
775.327,1.353
775.594,1.346
775.860,1.332
776.126,1.318
776.393,1.311
776.659,1.307
776.926,1.305
777.193,1.307
777.459,1.310
777.726,1.313
777.992,1.315
778.259,1.313
778.526,1.317
778.793,1.321
779.059,1.326
779.326,1.330
779.593,1.333
779.860,1.336
780.127,1.334
780.394,1.335
780.661,1.338
780.928,1.339
781.195,1.334
781.462,1.325
781.729,1.321
781.996,1.319
782.263,1.321
782.530,1.328
782.797,1.334
783.064,1.331
783.332,1.322
783.599,1.313
783.866,1.314
784.134,1.314
784.401,1.320
784.668,1.324
784.936,1.326
785.203,1.323
785.470,1.316
785.738,1.312
786.005,1.306
786.273,1.303
786.541,1.300
786.808,1.303
787.076,1.306
787.343,1.312
787.611,1.318
787.879,1.327
788.146,1.332
788.414,1.337
788.682,1.335
788.950,1.333
789.217,1.331
789.485,1.339
789.753,1.348
790.021,1.346
790.289,1.332
790.557,1.314
790.825,1.304
791.093,1.304
791.361,1.313
791.629,1.327
791.897,1.337
792.165,1.338
792.433,1.331
792.701,1.315
792.969,1.302
793.237,1.297
793.505,1.306
793.773,1.319
794.042,1.322
794.310,1.315
794.578,1.310
794.846,1.307
795.115,1.305
795.383,1.306
795.651,1.316
795.920,1.325
796.188,1.327
796.456,1.331
796.725,1.335
796.993,1.347
797.261,1.354
797.530,1.354
797.798,1.346
798.067,1.341
798.335,1.345
798.604,1.344
798.872,1.333
799.141,1.320
799.409,1.312
799.678,1.312
799.946,1.317
800.215,1.325
800.483,1.328
800.752,1.328
801.020,1.325
801.289,1.323
801.558,1.322
801.826,1.323
802.095,1.319
802.363,1.319
802.632,1.323
802.901,1.332
803.169,1.334
803.438,1.329
803.707,1.318
803.976,1.307
804.244,1.304
804.513,1.307
804.782,1.307
805.050,1.305
805.319,1.311
805.588,1.325
805.857,1.335
806.125,1.336
806.394,1.329
806.663,1.320
806.931,1.312
807.200,1.308
807.469,1.311
807.738,1.313
808.006,1.315
808.275,1.321
808.544,1.333
808.813,1.344
809.082,1.344
809.350,1.333
809.619,1.325
809.888,1.318
810.157,1.314
810.425,1.311
810.694,1.312
810.963,1.319
811.232,1.318
811.500,1.313
811.769,1.302
812.038,1.303
812.306,1.311
812.575,1.324
812.844,1.332
813.113,1.334
813.381,1.326
813.650,1.323
813.919,1.326
814.187,1.334
814.456,1.337
814.725,1.335
814.993,1.332
815.262,1.331
815.531,1.327
815.799,1.325
816.068,1.316
816.336,1.306
816.605,1.304
816.873,1.310
817.142,1.322
817.411,1.331
817.679,1.338
817.948,1.346
818.216,1.359
818.485,1.386
818.753,1.411
819.021,1.398
819.290,1.361
819.558,1.327
819.827,1.326
820.095,1.335
820.363,1.337
820.632,1.331
820.900,1.325
821.168,1.327
821.437,1.336
821.705,1.341
821.973,1.343
822.241,1.343
822.509,1.343
822.777,1.340
823.046,1.336
823.314,1.336
823.582,1.340
823.850,1.344
824.118,1.347
824.386,1.345
824.654,1.331
824.922,1.314
825.190,1.304
825.457,1.311
825.725,1.319
825.993,1.320
826.261,1.315
826.529,1.313
826.796,1.317
827.064,1.321
827.332,1.325
827.599,1.331
827.867,1.340
828.134,1.341
828.402,1.329
828.669,1.314
828.937,1.309
829.204,1.325
829.471,1.345
829.739,1.357
830.006,1.354
830.273,1.344
830.540,1.332
830.807,1.319
831.075,1.315
831.342,1.321
831.609,1.331
831.876,1.336
832.142,1.338
832.409,1.340
832.676,1.336
832.943,1.322
833.210,1.311
833.476,1.308
833.743,1.313
834.010,1.316
834.276,1.309
834.543,1.303
834.809,1.306
835.076,1.312
835.342,1.315
835.608,1.321
835.874,1.331
836.141,1.334
836.407,1.329
836.673,1.321
836.939,1.322
837.205,1.321
837.471,1.319
837.737,1.317
838.002,1.314
838.268,1.311
838.534,1.309
838.799,1.309
839.065,1.316
839.330,1.319
839.596,1.320
839.861,1.321
840.127,1.331
840.392,1.342
840.657,1.350
840.922,1.355
841.187,1.359
841.452,1.362
841.717,1.363
841.982,1.354
842.247,1.339
842.511,1.328
842.776,1.327
843.041,1.330
843.305,1.323
843.570,1.316
843.834,1.315
844.098,1.318
844.362,1.321
844.627,1.317
844.891,1.319
845.155,1.323
845.419,1.333
845.682,1.338
845.946,1.338
846.210,1.337
846.474,1.334
846.737,1.335
847.001,1.331
847.264,1.319
847.527,1.310
847.790,1.309
848.054,1.314
848.317,1.312
848.580,1.310
848.843,1.313
849.105,1.328
849.368,1.342
849.631,1.347
849.893,1.345
850.156,1.345
850.418,1.346
850.680,1.336
850.943,1.326
851.205,1.326
851.467,1.330
851.729,1.326
851.991,1.321
852.252,1.324
852.514,1.332
852.776,1.340
853.037,1.347
853.298,1.346
853.560,1.335
853.821,1.320
854.082,1.309
854.343,1.309
854.604,1.321
854.865,1.342
855.126,1.359
855.386,1.368
855.647,1.365
855.907,1.355
856.168,1.340
856.428,1.328
856.688,1.324
856.948,1.314
857.208,1.305
857.468,1.304
857.727,1.312
857.987,1.320
858.247,1.324
858.506,1.334
858.765,1.339
859.024,1.333
859.284,1.321
859.543,1.308
859.801,1.303
860.060,1.305
860.319,1.320
860.577,1.336
860.836,1.346
861.094,1.349
861.352,1.345
861.611,1.334
861.869,1.319
862.127,1.312
862.384,1.314
862.642,1.322
862.900,1.333
863.157,1.340
863.414,1.342
863.672,1.335
863.929,1.325
864.186,1.320
864.443,1.320
864.699,1.323
864.956,1.322
865.212,1.311
865.469,1.308
865.725,1.316
865.981,1.330
866.237,1.338
866.493,1.338
866.749,1.327
867.005,1.320
867.260,1.308
867.516,1.304
867.771,1.300
868.026,1.301
868.282,1.312
868.536,1.322
868.791,1.325
869.046,1.314
869.301,1.306
869.555,1.305
869.809,1.315
870.064,1.325
870.318,1.334
870.572,1.341
870.826,1.336
871.079,1.327
871.333,1.320
871.586,1.322
871.840,1.321
872.093,1.318
872.346,1.321
872.599,1.335
872.852,1.349
873.105,1.358
873.357,1.354
873.610,1.345
873.862,1.342
874.114,1.345
874.366,1.348
874.618,1.341
874.870,1.326
875.121,1.312
875.373,1.310
875.624,1.318
875.876,1.325
876.127,1.323
876.378,1.317
876.629,1.315
876.879,1.320
877.130,1.325
877.381,1.318
877.631,1.304
877.881,1.295
878.131,1.303
878.381,1.324
878.631,1.347
878.881,1.359
879.130,1.354
879.380,1.342
879.629,1.329
879.878,1.319
880.127,1.312
880.376,1.315
880.625,1.326
880.873,1.341
881.122,1.352
881.370,1.355
881.618,1.347
881.866,1.335
882.114,1.322
882.362,1.317
882.610,1.318
882.857,1.324
883.105,1.325
883.352,1.318
883.599,1.311
883.846,1.306
884.093,1.307
884.340,1.316
884.586,1.327
884.833,1.335
885.079,1.337
885.325,1.332
885.571,1.329
885.817,1.324
886.063,1.328
886.309,1.332
886.554,1.340
886.800,1.345
887.045,1.347
887.290,1.341
887.535,1.328
887.780,1.322
888.025,1.328
888.270,1.343
888.514,1.356
888.758,1.358
889.003,1.350
889.247,1.331
889.491,1.325
889.735,1.328
889.978,1.337
890.222,1.333
890.465,1.324
890.709,1.318
890.952,1.312
891.195,1.310
891.438,1.309
891.681,1.310
891.923,1.314
892.166,1.320
892.408,1.323
892.651,1.316
892.893,1.306
893.135,1.302
893.377,1.306
893.619,1.312
893.861,1.320
894.102,1.329
894.344,1.343
894.585,1.358
894.826,1.365
895.067,1.354
895.308,1.342
895.549,1.331
895.790,1.326
896.031,1.318
896.271,1.321
896.512,1.332
896.752,1.341
896.992,1.341
897.232,1.332
897.472,1.328
897.712,1.336
897.952,1.349
898.191,1.355
898.431,1.353
898.670,1.354
898.910,1.362
899.149,1.374
899.388,1.380
899.627,1.379
899.866,1.367
900.105,1.350
900.343,1.339
900.582,1.339
900.820,1.347
901.059,1.358
901.297,1.364
901.535,1.349
901.773,1.329
902.011,1.311
902.249,1.302
902.487,1.299
902.725,1.302
902.963,1.313
903.200,1.317
903.438,1.316
903.675,1.316
903.912,1.322
904.150,1.330
904.387,1.333
904.624,1.328
904.861,1.322
905.098,1.317
905.334,1.320
905.571,1.320
905.808,1.321
906.045,1.329
906.281,1.339
906.518,1.345
906.754,1.348
906.990,1.349
907.227,1.347
907.463,1.335
907.699,1.326
907.935,1.329
908.171,1.338
908.407,1.339
908.643,1.336
908.879,1.332
909.115,1.338
909.350,1.343
909.586,1.345
909.822,1.343
910.057,1.348
910.293,1.364
910.528,1.376
910.764,1.373
910.999,1.367
911.235,1.358
911.470,1.359
911.706,1.354
911.941,1.354
912.176,1.347
912.412,1.340
912.647,1.340
912.882,1.346
913.117,1.348
913.352,1.342
913.588,1.331
913.823,1.323
914.058,1.320
914.293,1.324
914.528,1.324
914.763,1.319
914.999,1.312
915.234,1.310
915.469,1.313
915.704,1.314
915.939,1.312
916.174,1.307
916.409,1.310
916.645,1.323
916.880,1.337
917.115,1.347
917.350,1.347
917.586,1.344
917.821,1.345
918.056,1.351
918.292,1.355
918.527,1.350
918.763,1.338
918.998,1.330
919.234,1.336
919.469,1.349
919.705,1.355
919.940,1.351
920.176,1.344
920.412,1.346
920.648,1.345
920.884,1.340
921.120,1.331
921.356,1.325
921.592,1.322
921.828,1.323
922.065,1.328
922.301,1.338
922.537,1.346
922.774,1.350
923.011,1.340
923.247,1.326
923.484,1.323
923.721,1.331
923.958,1.340
924.195,1.341
924.433,1.338
924.670,1.328
924.908,1.313
925.145,1.312
925.383,1.323
925.621,1.337
925.859,1.341
926.097,1.342
926.335,1.344
926.574,1.347
926.813,1.349
927.051,1.349
927.290,1.348
927.529,1.355
927.769,1.368
928.008,1.375
928.248,1.362
928.487,1.347
928.727,1.342
928.967,1.354
929.208,1.364
929.448,1.366
929.689,1.357
929.930,1.344
930.171,1.332
930.413,1.327
930.654,1.326
930.896,1.319
931.138,1.312
931.380,1.308
931.623,1.317
931.865,1.330
932.108,1.342
932.352,1.349
932.595,1.355
932.839,1.361
933.083,1.358
933.327,1.348
933.571,1.332
933.816,1.330
934.061,1.333
934.307,1.335
934.552,1.327
934.798,1.325
935.045,1.327
935.291,1.333
935.538,1.334
935.785,1.335
936.033,1.337
936.281,1.340
936.529,1.346
936.777,1.349
937.026,1.347
937.275,1.341
937.525,1.336
937.775,1.331
938.025,1.324
938.276,1.315
938.527,1.308
938.778,1.303
939.030,1.299
939.282,1.298
939.535,1.303
939.788,1.316
940.041,1.319
940.295,1.315
940.550,1.312
940.804,1.321
941.059,1.334
941.315,1.333
941.571,1.322
941.828,1.312
942.085,1.309
942.342,1.313
942.600,1.313
942.858,1.313
943.117,1.309
943.377,1.304
943.636,1.298
943.897,1.298
944.158,1.304
944.419,1.314
944.681,1.320
944.944,1.324
945.207,1.328
945.470,1.333
945.734,1.337
945.999,1.346
946.264,1.357
946.530,1.364
946.797,1.363
947.064,1.357
947.331,1.352
947.600,1.341
947.869,1.332
948.138,1.321
948.408,1.315
948.679,1.316
948.950,1.321
949.222,1.320
949.495,1.315
949.768,1.312
950.043,1.321
