Wavelength (nm),Intensity W31.3,,C:/Users/Brend/Desktop/LED Spectras v2/Spectrometer Data (White).sp,,,W31.3,
379.792,2.403,,2018-06-15 14:49:40,,Integration Time,177 ms,
380.000,2.397,,Analyze Light,,Number of Scans to Average,25,
380.209,2.391,,,,Smoothing,1,
380.418,2.404
380.627,2.429
380.837,2.456
381.048,2.471
381.259,2.472
381.471,2.473
381.683,2.480
381.896,2.498
382.110,2.507
382.324,2.521
382.538,2.541
382.753,2.561
382.969,2.555
383.185,2.539
383.402,2.526
383.619,2.538
383.837,2.558
384.055,2.590
384.274,2.617
384.493,2.636
384.712,2.645
384.932,2.656
385.153,2.668
385.374,2.679
385.596,2.686
385.818,2.707
386.040,2.735
386.263,2.764
386.487,2.773
386.710,2.775
386.935,2.762
387.159,2.759
387.385,2.753
387.610,2.758
387.836,2.765
388.063,2.781
388.289,2.795
388.517,2.804
388.744,2.801
388.972,2.815
389.201,2.826
389.430,2.845
389.659,2.858
389.889,2.877
390.119,2.891
390.349,2.901
390.580,2.914
390.811,2.923
391.042,2.924
391.274,2.929
391.507,2.940
391.739,2.950
391.972,2.948
392.205,2.954
392.439,2.976
392.673,3.004
392.907,3.026
393.142,3.048
393.377,3.064
393.612,3.087
393.848,3.095
394.084,3.108
394.320,3.113
394.557,3.129
394.794,3.136
395.031,3.153
395.269,3.173
395.507,3.200
395.745,3.205
395.983,3.207
396.222,3.213
396.461,3.247
396.700,3.287
396.940,3.314
397.180,3.313
397.420,3.303
397.660,3.291
397.901,3.292
398.142,3.296
398.383,3.306
398.625,3.309
398.866,3.324
399.108,3.356
399.351,3.407
399.593,3.428
399.836,3.432
400.079,3.407
400.322,3.397
400.566,3.388
400.809,3.393
401.053,3.400
401.298,3.415
401.542,3.437
401.787,3.467
402.031,3.492
402.277,3.515
402.522,3.521
402.767,3.533
403.013,3.524
403.259,3.528
403.505,3.525
403.752,3.536
403.998,3.546
404.245,3.574
404.492,3.598
404.739,3.614
404.986,3.617
405.234,3.628
405.482,3.640
405.730,3.643
405.978,3.646
406.226,3.645
406.475,3.643
406.723,3.647
406.972,3.668
407.221,3.704
407.470,3.725
407.720,3.742
407.969,3.739
408.219,3.755
408.469,3.768
408.719,3.791
408.969,3.794
409.219,3.806
409.470,3.820
409.720,3.849
409.971,3.868
410.222,3.895
410.473,3.904
410.724,3.909
410.976,3.910
411.227,3.925
411.479,3.941
411.731,3.960
411.983,3.963
412.235,3.972
412.487,3.973
412.740,3.988
412.992,3.997
413.245,4.017
413.497,4.029
413.750,4.043
414.003,4.047
414.257,4.050
414.510,4.046
414.763,4.056
415.017,4.067
415.270,4.084
415.524,4.091
415.778,4.095
416.032,4.099
416.286,4.118
416.540,4.137
416.794,4.161
417.049,4.171
417.303,4.184
417.558,4.197
417.812,4.215
418.067,4.228
418.322,4.242
418.577,4.248
418.832,4.258
419.088,4.251
419.343,4.261
419.598,4.260
419.854,4.279
420.109,4.290
420.365,4.323
420.621,4.343
420.876,4.366
421.132,4.374
421.388,4.386
421.645,4.393
421.901,4.414
422.157,4.437
422.413,4.471
422.670,4.499
422.926,4.528
423.183,4.541
423.439,4.573
423.696,4.609
423.953,4.676
424.210,4.730
424.467,4.769
424.724,4.784
424.981,4.801
425.238,4.835
425.495,4.893
425.753,4.946
426.010,4.998
426.267,5.033
426.525,5.096
426.782,5.158
427.040,5.237
427.298,5.313
427.555,5.409
427.813,5.487
428.071,5.564
428.329,5.634
428.587,5.717
428.845,5.799
429.103,5.894
429.361,5.990
429.619,6.103
429.878,6.214
430.136,6.346
430.394,6.469
430.653,6.618
430.911,6.772
431.170,6.940
431.428,7.083
431.687,7.227
431.946,7.369
432.204,7.537
432.463,7.718
432.722,7.913
432.981,8.109
433.240,8.323
433.499,8.540
433.758,8.773
434.017,8.991
434.276,9.221
434.535,9.449
434.794,9.696
435.053,9.949
435.312,10.224
435.572,10.510
435.831,10.819
436.090,11.136
436.350,11.467
436.609,11.803
436.869,12.147
437.128,12.492
437.388,12.849
437.647,13.223
437.907,13.629
438.166,14.048
438.426,14.471
438.686,14.896
438.946,15.345
439.205,15.818
439.465,16.318
439.725,16.835
439.985,17.368
440.245,17.894
440.505,18.430
440.765,18.977
441.025,19.535
441.285,20.105
441.545,20.687
441.805,21.299
442.065,21.931
442.325,22.585
442.585,23.271
442.846,23.990
443.106,24.761
443.366,25.562
443.626,26.385
443.887,27.227
444.147,28.102
444.407,29.005
444.668,29.945
444.928,30.917
445.189,31.958
445.449,33.037
445.710,34.174
445.970,35.346
446.231,36.574
446.491,37.863
446.752,39.200
447.012,40.590
447.273,42.035
447.534,43.532
447.794,45.067
448.055,46.647
448.316,48.306
448.577,50.055
448.837,51.887
449.098,53.783
449.359,55.719
449.620,57.658
449.881,59.610
450.142,61.594
450.403,63.639
450.664,65.732
450.924,67.867
451.185,70.023
451.446,72.192
451.707,74.342
451.969,76.474
452.230,78.561
452.491,80.574
452.752,82.422
453.013,84.063
453.274,85.454
453.535,86.627
453.796,87.616
454.058,88.476
454.319,89.246
454.580,89.922
454.841,90.515
455.103,91.017
455.364,91.440
455.625,91.792
455.887,92.077
456.148,92.300
456.409,92.463
456.671,92.568
456.932,92.626
457.194,92.637
457.455,92.612
457.716,92.553
457.978,92.466
458.239,92.345
458.501,92.191
458.763,91.998
459.024,91.758
459.286,91.468
459.547,91.123
459.809,90.716
460.071,90.238
460.332,89.699
460.594,89.108
460.856,88.462
461.117,87.746
461.379,86.949
461.641,86.051
461.903,85.015
462.164,83.839
462.426,82.540
462.688,81.158
462.950,79.708
463.212,78.225
463.474,76.726
463.736,75.240
463.998,73.813
464.260,72.456
464.522,71.179
464.784,69.941
465.046,68.764
465.308,67.655
465.570,66.610
465.832,65.610
466.094,64.633
466.356,63.698
466.618,62.802
466.880,61.945
467.142,61.117
467.405,60.322
467.667,59.581
467.929,58.866
468.191,58.172
468.454,57.482
468.716,56.813
468.978,56.149
469.241,55.491
469.503,54.852
469.765,54.239
470.028,53.635
470.290,53.032
470.552,52.438
470.815,51.863
471.077,51.299
471.340,50.742
471.602,50.180
471.865,49.597
472.128,48.994
472.390,48.381
472.653,47.759
472.915,47.144
473.178,46.516
473.441,45.894
473.703,45.240
473.966,44.566
474.229,43.865
474.492,43.150
474.755,42.442
475.017,41.762
475.280,41.109
475.543,40.459
475.806,39.780
476.069,39.079
476.332,38.376
476.595,37.689
476.858,37.009
477.121,36.338
477.384,35.680
477.647,35.061
477.910,34.465
478.173,33.889
478.436,33.320
478.699,32.788
478.962,32.269
479.226,31.782
479.489,31.283
479.752,30.801
480.015,30.317
480.279,29.859
480.542,29.397
480.805,28.951
481.069,28.519
481.332,28.134
481.595,27.773
481.859,27.456
482.122,27.143
482.386,26.839
482.649,26.530
482.913,26.236
483.177,25.954
483.440,25.677
483.704,25.420
483.967,25.212
484.231,25.036
484.495,24.879
484.759,24.695
485.022,24.489
485.286,24.271
485.550,24.063
485.814,23.850
486.078,23.658
486.342,23.486
486.606,23.358
486.869,23.244
487.133,23.139
487.397,23.018
487.662,22.895
487.926,22.766
488.190,22.657
488.454,22.540
488.718,22.438
488.982,22.323
489.246,22.218
489.511,22.100
489.775,21.994
490.039,21.888
490.304,21.781
490.568,21.670
490.832,21.581
491.097,21.519
491.361,21.483
491.626,21.434
491.890,21.379
492.155,21.307
492.419,21.250
492.684,21.189
492.949,21.142
493.213,21.108
493.478,21.098
493.743,21.083
494.008,21.052
494.272,21.032
494.537,21.038
494.802,21.059
495.067,21.086
495.332,21.104
495.597,21.137
495.862,21.163
496.127,21.213
496.392,21.250
496.657,21.289
496.922,21.321
497.187,21.382
497.452,21.469
497.718,21.588
497.983,21.701
498.248,21.804
498.513,21.883
498.779,21.987
499.044,22.097
499.310,22.196
499.575,22.280
499.841,22.380
500.106,22.496
500.372,22.611
500.637,22.729
500.903,22.877
501.168,23.026
501.434,23.157
501.700,23.257
501.966,23.370
502.231,23.495
502.497,23.632
502.763,23.758
503.029,23.886
503.295,24.017
503.561,24.167
503.827,24.324
504.093,24.484
504.359,24.634
504.625,24.798
504.891,24.948
505.157,25.107
505.423,25.231
505.690,25.368
505.956,25.500
506.222,25.658
506.489,25.815
506.755,25.989
507.021,26.150
507.288,26.320
507.554,26.461
507.821,26.613
508.087,26.755
508.354,26.934
508.621,27.098
508.887,27.256
509.154,27.389
509.421,27.524
509.687,27.650
509.954,27.779
510.221,27.922
510.488,28.103
510.755,28.287
511.022,28.465
511.289,28.602
511.556,28.734
511.823,28.848
512.090,28.980
512.357,29.096
512.624,29.224
512.891,29.344
513.159,29.474
513.426,29.605
513.693,29.726
513.960,29.840
514.228,29.957
514.495,30.084
514.763,30.215
515.030,30.336
515.298,30.457
515.565,30.588
515.833,30.728
516.100,30.849
516.368,30.944
516.636,31.013
516.904,31.111
517.171,31.217
517.439,31.347
517.707,31.462
517.975,31.594
518.243,31.717
518.511,31.835
518.779,31.933
519.047,32.048
519.315,32.160
519.583,32.255
519.851,32.320
520.119,32.397
520.387,32.486
520.656,32.578
520.924,32.667
521.192,32.758
521.461,32.842
521.729,32.915
521.997,32.984
522.266,33.074
522.534,33.161
522.803,33.268
523.071,33.371
523.340,33.473
523.609,33.549
523.877,33.620
524.146,33.696
524.415,33.783
524.684,33.874
524.952,33.969
525.221,34.064
525.490,34.162
525.759,34.241
526.028,34.299
526.297,34.332
526.566,34.383
526.835,34.449
527.104,34.521
527.373,34.579
527.642,34.636
527.912,34.690
528.181,34.744
528.450,34.798
528.719,34.853
528.989,34.910
529.258,34.963
529.528,35.005
529.797,35.034
530.067,35.067
530.336,35.099
530.606,35.124
530.875,35.132
531.145,35.148
531.414,35.184
531.684,35.228
531.954,35.263
532.224,35.296
532.493,35.325
532.763,35.362
533.033,35.412
533.303,35.463
533.573,35.515
533.843,35.536
534.113,35.559
534.383,35.570
534.653,35.596
534.923,35.619
535.193,35.655
535.463,35.690
535.733,35.721
536.004,35.739
536.274,35.759
536.544,35.779
536.814,35.805
537.085,35.831
537.355,35.878
537.626,35.927
537.896,35.965
538.166,35.977
538.437,35.989
538.707,36.015
538.978,36.073
539.249,36.147
539.519,36.223
539.790,36.269
540.061,36.306
540.331,36.333
540.602,36.368
540.873,36.385
541.144,36.393
541.414,36.400
541.685,36.427
541.956,36.458
542.227,36.487
542.498,36.504
542.769,36.540
543.040,36.589
543.311,36.658
543.582,36.737
543.853,36.811
544.124,36.870
544.396,36.905
544.667,36.920
544.938,36.922
545.209,36.886
545.480,36.845
545.752,36.795
546.023,36.772
546.294,36.746
546.566,36.735
546.837,36.726
547.109,36.733
547.380,36.730
547.652,36.728
547.923,36.719
548.195,36.727
548.466,36.732
548.738,36.741
549.009,36.724
549.281,36.702
549.553,36.673
549.824,36.640
550.096,36.622
550.368,36.622
550.640,36.634
550.911,36.653
551.183,36.664
551.455,36.680
551.727,36.665
551.999,36.628
552.271,36.583
552.543,36.566
552.815,36.564
553.087,36.577
553.359,36.576
553.631,36.546
553.903,36.484
554.175,36.419
554.447,36.376
554.719,36.347
554.991,36.315
555.263,36.279
555.535,36.244
555.808,36.218
556.080,36.194
556.352,36.159
556.624,36.111
556.897,36.051
557.169,35.994
557.441,35.943
557.714,35.892
557.986,35.868
558.258,35.841
558.531,35.851
558.803,35.833
559.076,35.814
559.348,35.754
559.621,35.683
559.893,35.610
560.166,35.564
560.438,35.521
560.711,35.498
560.983,35.469
561.256,35.474
561.528,35.481
561.801,35.483
562.074,35.451
562.346,35.398
562.619,35.340
562.892,35.274
563.164,35.200
563.437,35.140
563.710,35.083
563.983,35.044
564.255,35.010
564.528,35.032
564.801,35.070
565.074,35.098
565.346,35.079
565.619,35.036
565.892,34.976
566.165,34.907
566.438,34.818
566.711,34.730
566.984,34.646
567.257,34.584
567.529,34.536
567.802,34.509
568.075,34.481
568.348,34.445
568.621,34.407
568.894,34.359
569.167,34.298
569.440,34.213
569.713,34.111
569.986,34.005
570.259,33.884
570.532,33.775
570.805,33.685
571.078,33.624
571.351,33.576
571.625,33.532
571.898,33.467
572.171,33.385
572.444,33.288
572.717,33.198
572.990,33.102
573.263,32.990
573.536,32.867
573.809,32.743
574.083,32.642
574.356,32.577
574.629,32.551
574.902,32.517
575.175,32.455
575.448,32.355
575.721,32.246
575.995,32.153
576.268,32.075
576.541,32.025
576.814,31.980
577.087,31.940
577.361,31.895
577.634,31.855
577.907,31.795
578.180,31.710
578.453,31.609
578.727,31.529
579.000,31.446
579.273,31.380
579.546,31.320
579.820,31.292
580.093,31.253
580.366,31.215
580.639,31.164
580.913,31.122
581.186,31.057
581.459,30.982
581.732,30.876
582.005,30.773
582.279,30.656
582.552,30.543
582.825,30.436
583.098,30.359
583.372,30.313
583.645,30.293
583.918,30.278
584.191,30.265
584.464,30.232
584.738,30.176
585.011,30.091
585.284,29.981
585.557,29.847
585.831,29.712
586.104,29.595
586.377,29.533
586.650,29.486
586.923,29.453
587.196,29.418
587.470,29.388
587.743,29.340
588.016,29.273
588.289,29.192
588.562,29.122
588.835,29.034
589.109,28.925
589.382,28.802
589.655,28.696
589.928,28.624
590.201,28.570
590.474,28.534
590.747,28.494
591.020,28.442
591.293,28.366
591.567,28.270
591.840,28.156
592.113,28.031
592.386,27.908
592.659,27.798
592.932,27.709
593.205,27.638
593.478,27.583
593.751,27.517
594.024,27.452
594.297,27.366
594.570,27.276
594.843,27.173
595.116,27.068
595.389,26.957
595.662,26.850
595.934,26.753
596.207,26.676
596.480,26.604
596.753,26.535
597.026,26.457
597.299,26.385
597.572,26.314
597.844,26.227
598.117,26.092
598.390,25.930
598.663,25.759
598.936,25.606
599.208,25.461
599.481,25.336
599.754,25.230
600.026,25.133
600.299,25.040
600.572,24.949
600.844,24.845
601.117,24.718
601.390,24.581
601.662,24.454
601.935,24.325
602.207,24.191
602.480,24.053
602.752,23.924
603.025,23.798
603.297,23.687
603.570,23.602
603.842,23.544
604.115,23.472
604.387,23.377
604.660,23.248
604.932,23.119
605.204,22.989
605.477,22.869
605.749,22.755
606.021,22.649
606.294,22.539
606.566,22.404
606.838,22.273
607.110,22.164
607.383,22.087
607.655,22.024
607.927,21.963
608.199,21.902
608.471,21.804
608.743,21.672
609.015,21.511
609.287,21.366
609.559,21.231
609.831,21.117
610.103,20.996
610.375,20.871
610.647,20.734
610.919,20.602
611.191,20.475
611.463,20.360
611.735,20.226
612.007,20.076
612.278,19.921
612.550,19.784
612.822,19.658
613.094,19.533
613.365,19.396
613.637,19.270
613.909,19.139
614.180,19.014
614.452,18.885
614.723,18.767
614.995,18.651
615.266,18.547
615.538,18.453
615.809,18.364
616.081,18.246
616.352,18.116
616.623,17.983
616.895,17.864
617.166,17.731
617.437,17.598
617.709,17.468
617.980,17.366
618.251,17.283
618.522,17.221
618.793,17.168
619.065,17.124
619.336,17.045
619.607,16.937
619.878,16.807
620.149,16.697
620.420,16.573
620.691,16.443
620.962,16.319
621.232,16.236
621.503,16.142
621.774,16.056
622.045,15.973
622.316,15.926
622.586,15.864
622.857,15.795
623.128,15.698
623.398,15.603
623.669,15.488
623.940,15.367
624.210,15.237
624.481,15.137
624.751,15.050
625.021,14.976
625.292,14.891
625.562,14.828
625.833,14.769
626.103,14.715
626.373,14.638
626.643,14.559
626.914,14.468
627.184,14.381
627.454,14.289
627.724,14.200
627.994,14.117
628.264,14.036
628.534,13.948
628.804,13.861
629.074,13.790
629.344,13.736
629.614,13.688
629.884,13.631
630.154,13.572
630.424,13.504
630.693,13.434
630.963,13.356
631.233,13.270
631.502,13.182
631.772,13.100
632.041,13.029
632.311,12.952
632.581,12.869
632.850,12.782
633.119,12.695
633.389,12.618
633.658,12.563
633.928,12.534
634.197,12.515
634.466,12.493
634.735,12.456
635.004,12.385
635.274,12.301
635.543,12.216
635.812,12.147
636.081,12.081
636.350,12.017
636.619,11.951
636.888,11.881
637.157,11.808
637.426,11.738
637.694,11.665
637.963,11.600
638.232,11.545
638.501,11.496
638.769,11.448
639.038,11.398
639.307,11.352
639.575,11.303
639.844,11.233
640.112,11.149
640.381,11.053
640.649,10.967
640.917,10.893
641.186,10.827
641.454,10.772
641.722,10.714
641.991,10.650
642.259,10.570
642.527,10.490
642.795,10.429
643.063,10.372
643.331,10.329
643.599,10.280
643.867,10.249
644.135,10.212
644.403,10.181
644.671,10.124
644.939,10.069
645.206,10.009
645.474,9.965
645.742,9.910
646.009,9.846
646.277,9.786
646.545,9.737
646.812,9.700
647.080,9.660
647.347,9.612
647.615,9.550
647.882,9.472
648.149,9.390
648.417,9.310
648.684,9.245
648.951,9.195
649.219,9.153
649.486,9.101
649.753,9.039
650.020,8.966
650.287,8.895
650.554,8.817
650.821,8.741
651.088,8.665
651.355,8.610
651.622,8.557
651.889,8.522
652.155,8.478
652.422,8.442
652.689,8.401
652.956,8.353
653.222,8.304
653.489,8.266
653.755,8.224
654.022,8.157
654.288,8.063
654.555,7.974
654.821,7.910
655.088,7.859
655.354,7.812
655.620,7.766
655.887,7.717
656.153,7.664
656.419,7.604
656.685,7.544
656.951,7.484
657.217,7.423
657.483,7.364
657.749,7.308
658.015,7.257
658.281,7.207
658.547,7.147
658.813,7.085
659.079,7.018
659.345,6.954
659.610,6.893
659.876,6.840
660.142,6.797
660.407,6.754
660.673,6.712
660.939,6.676
661.204,6.635
661.470,6.592
661.735,6.548
662.000,6.514
662.266,6.470
662.531,6.410
662.796,6.344
663.062,6.281
663.327,6.230
663.592,6.191
663.857,6.155
664.122,6.114
664.388,6.062
664.653,6.016
664.918,5.982
665.183,5.953
665.448,5.925
665.712,5.899
665.977,5.872
666.242,5.836
666.507,5.769
666.772,5.698
667.037,5.628
667.301,5.585
667.566,5.546
667.831,5.521
668.095,5.491
668.360,5.466
668.624,5.418
668.889,5.387
669.153,5.344
669.418,5.317
669.682,5.288
669.946,5.273
670.211,5.266
670.475,5.249
670.739,5.224
671.004,5.195
671.268,5.177
671.532,5.172
671.796,5.116
672.060,5.050
672.324,4.977
672.588,4.950
672.852,4.930
673.116,4.934
673.380,4.951
673.644,4.905
673.908,4.824
674.172,4.729
674.436,4.696
674.700,4.674
674.963,4.649
675.227,4.610
675.491,4.552
675.754,4.499
676.018,4.455
676.282,4.430
676.545,4.399
676.809,4.360
677.072,4.314
677.336,4.276
677.599,4.249
677.863,4.227
678.126,4.207
678.389,4.199
678.653,4.189
678.916,4.163
679.179,4.119
679.442,4.081
679.706,4.056
679.969,4.032
680.232,4.004
680.495,3.987
680.758,3.975
681.021,3.952
681.284,3.911
681.547,3.867
681.810,3.844
682.073,3.840
682.336,3.832
682.599,3.809
682.862,3.779
683.125,3.761
683.388,3.755
683.651,3.747
683.913,3.728
684.176,3.686
684.439,3.632
684.702,3.576
684.964,3.534
685.227,3.509
685.490,3.497
685.752,3.499
686.015,3.486
686.277,3.463
686.540,3.431
686.802,3.398
687.065,3.375
687.327,3.361
687.590,3.354
687.852,3.334
688.115,3.300
688.377,3.270
688.639,3.249
688.902,3.230
689.164,3.215
689.426,3.208
689.689,3.202
689.951,3.183
690.213,3.156
690.475,3.128
690.737,3.102
691.000,3.071
691.262,3.048
691.524,3.040
691.786,3.042
692.048,3.047
692.310,3.035
692.572,3.001
692.834,2.956
693.096,2.927
693.358,2.923
693.620,2.931
693.882,2.935
694.144,2.923
694.406,2.897
694.668,2.872
694.930,2.846
695.192,2.821
695.453,2.800
695.715,2.784
695.977,2.764
696.239,2.734
696.501,2.713
696.762,2.711
697.024,2.712
697.286,2.697
697.548,2.674
697.809,2.656
698.071,2.642
698.333,2.626
698.594,2.609
698.856,2.597
699.118,2.587
699.379,2.577
699.641,2.570
699.902,2.563
700.164,2.550
700.426,2.534
700.687,2.513
700.949,2.501
701.210,2.487
701.472,2.471
701.733,2.449
701.995,2.435
702.256,2.426
702.518,2.419
702.779,2.406
703.041,2.407
703.302,2.413
703.563,2.405
703.825,2.379
704.086,2.355
704.348,2.344
704.609,2.343
704.871,2.347
705.132,2.349
705.393,2.332
705.655,2.309
705.916,2.295
706.177,2.297
706.439,2.301
706.700,2.294
706.961,2.278
707.223,2.260
707.484,2.228
707.745,2.197
708.007,2.167
708.268,2.145
708.529,2.126
708.790,2.098
709.052,2.081
709.313,2.075
709.574,2.077
709.835,2.072
710.097,2.052
710.358,2.018
710.619,1.986
710.881,1.960
711.142,1.946
711.403,1.933
711.664,1.925
711.926,1.906
712.187,1.900
712.448,1.896
712.709,1.904
712.970,1.906
713.232,1.904
713.493,1.900
713.754,1.893
714.015,1.888
714.277,1.890
714.538,1.895
714.799,1.908
715.060,1.908
715.322,1.904
715.583,1.886
715.844,1.870
716.105,1.851
716.367,1.837
716.628,1.832
716.889,1.827
717.150,1.810
717.411,1.784
717.673,1.768
717.934,1.764
718.195,1.765
718.457,1.750
718.718,1.728
718.979,1.715
719.240,1.720
719.502,1.734
719.763,1.742
720.024,1.742
720.286,1.740
720.547,1.728
720.808,1.713
721.069,1.702
721.331,1.705
721.592,1.716
721.853,1.718
722.115,1.716
722.376,1.711
722.638,1.705
722.899,1.697
723.160,1.680
723.422,1.666
723.683,1.654
723.944,1.655
724.206,1.654
724.467,1.653
724.729,1.651
724.990,1.661
725.252,1.672
725.513,1.666
725.775,1.645
726.036,1.622
726.298,1.614
726.559,1.619
726.821,1.623
727.082,1.627
727.344,1.624
727.605,1.625
727.867,1.620
728.128,1.622
728.390,1.621
728.652,1.631
728.913,1.644
729.175,1.656
729.436,1.656
729.698,1.654
729.960,1.646
730.221,1.636
730.483,1.614
730.745,1.601
731.007,1.596
731.268,1.598
731.530,1.602
731.792,1.605
732.054,1.611
732.315,1.614
732.577,1.617
732.839,1.607
733.101,1.594
733.363,1.585
733.625,1.582
733.887,1.585
734.149,1.587
734.411,1.598
734.673,1.606
734.935,1.608
735.197,1.602
735.459,1.603
735.721,1.607
735.983,1.605
736.245,1.585
736.507,1.576
736.769,1.585
737.031,1.602
737.293,1.597
737.555,1.578
737.818,1.561
738.080,1.552
738.342,1.552
738.604,1.552
738.867,1.556
739.129,1.559
739.391,1.563
739.654,1.567
739.916,1.573
740.178,1.578
740.441,1.587
740.703,1.590
740.966,1.586
741.228,1.578
741.491,1.570
741.753,1.572
742.016,1.573
742.278,1.576
742.541,1.576
742.804,1.581
743.066,1.594
743.329,1.601
743.592,1.596
743.854,1.592
744.117,1.596
744.380,1.606
744.643,1.605
744.905,1.595
745.168,1.590
745.431,1.586
745.694,1.578
745.957,1.564
746.220,1.551
746.483,1.544
746.746,1.545
747.009,1.564
747.272,1.595
747.535,1.620
747.798,1.623
748.061,1.606
748.324,1.580
748.588,1.565
748.851,1.560
749.114,1.564
749.377,1.570
749.641,1.575
749.904,1.582
750.167,1.591
750.431,1.598
750.694,1.604
750.958,1.601
751.221,1.588
751.485,1.563
751.748,1.550
752.012,1.559
752.275,1.585
752.539,1.597
752.803,1.590
753.066,1.574
753.330,1.559
753.594,1.548
753.857,1.541
754.121,1.549
754.385,1.565
754.649,1.574
754.913,1.579
755.177,1.585
755.441,1.582
755.705,1.567
755.969,1.549
756.233,1.552
756.497,1.562
756.761,1.564
757.025,1.551
757.289,1.540
757.553,1.537
757.818,1.546
758.082,1.553
758.346,1.555
758.610,1.555
758.875,1.554
759.139,1.553
759.404,1.545
759.668,1.539
759.932,1.542
760.197,1.553
760.462,1.560
760.726,1.560
760.991,1.557
761.255,1.557
761.520,1.554
761.785,1.541
762.049,1.518
762.314,1.501
762.579,1.505
762.844,1.523
763.109,1.535
763.374,1.532
763.639,1.523
763.903,1.514
764.168,1.506
764.433,1.509
764.699,1.530
764.964,1.548
765.229,1.542
765.494,1.520
765.759,1.503
766.024,1.498
766.290,1.507
766.555,1.520
766.820,1.528
767.086,1.530
767.351,1.525
767.616,1.519
767.882,1.511
768.147,1.503
768.413,1.496
768.678,1.487
768.944,1.488
769.209,1.499
769.475,1.517
769.741,1.534
770.006,1.544
770.272,1.552
770.538,1.550
770.804,1.540
771.070,1.535
771.335,1.542
771.601,1.557
771.867,1.559
772.133,1.550
772.399,1.533
772.665,1.510
772.931,1.496
773.197,1.501
773.464,1.519
773.730,1.538
773.996,1.543
774.262,1.549
774.528,1.545
774.795,1.548
775.061,1.553
775.327,1.555
775.594,1.544
775.860,1.522
776.126,1.494
776.393,1.473
776.659,1.465
776.926,1.463
777.193,1.468
777.459,1.472
777.726,1.473
777.992,1.472
778.259,1.467
778.526,1.475
778.793,1.480
779.059,1.489
779.326,1.500
779.593,1.511
779.860,1.517
780.127,1.511
780.394,1.501
780.661,1.497
780.928,1.489
781.195,1.480
781.462,1.468
781.729,1.469
781.996,1.471
782.263,1.472
782.530,1.481
782.797,1.488
783.064,1.485
783.332,1.475
783.599,1.463
783.866,1.464
784.134,1.459
784.401,1.458
784.668,1.457
784.936,1.459
785.203,1.454
785.470,1.440
785.738,1.433
786.005,1.432
786.273,1.435
786.541,1.434
786.808,1.439
787.076,1.447
787.343,1.456
787.611,1.464
787.879,1.473
788.146,1.473
788.414,1.476
788.682,1.468
788.950,1.468
789.217,1.468
789.485,1.483
789.753,1.495
790.021,1.485
790.289,1.459
790.557,1.436
790.825,1.432
791.093,1.444
791.361,1.464
791.629,1.481
791.897,1.488
792.165,1.483
792.433,1.471
792.701,1.449
792.969,1.426
793.237,1.410
793.505,1.414
793.773,1.428
794.042,1.434
794.310,1.429
794.578,1.423
794.846,1.424
795.115,1.429
795.383,1.436
795.651,1.450
795.920,1.459
796.188,1.462
796.456,1.467
796.725,1.473
796.993,1.488
797.261,1.495
797.530,1.487
797.798,1.473
798.067,1.467
798.335,1.475
798.604,1.474
798.872,1.458
799.141,1.444
799.409,1.441
799.678,1.447
799.946,1.456
800.215,1.460
800.483,1.456
800.752,1.448
801.020,1.441
801.289,1.439
801.558,1.442
801.826,1.446
802.095,1.442
802.363,1.438
802.632,1.439
802.901,1.454
803.169,1.464
803.438,1.461
803.707,1.445
803.976,1.428
804.244,1.424
804.513,1.427
804.782,1.422
805.050,1.414
805.319,1.413
805.588,1.425
805.857,1.441
806.125,1.451
806.394,1.451
806.663,1.440
806.931,1.426
807.200,1.418
807.469,1.422
807.738,1.427
808.006,1.430
808.275,1.440
808.544,1.456
808.813,1.470
809.082,1.468
809.350,1.455
809.619,1.444
809.888,1.434
810.157,1.427
810.425,1.420
810.694,1.419
810.963,1.425
811.232,1.425
811.500,1.420
811.769,1.410
812.038,1.413
812.306,1.425
812.575,1.441
812.844,1.446
813.113,1.444
813.381,1.437
813.650,1.438
813.919,1.446
814.187,1.457
814.456,1.462
814.725,1.462
814.993,1.453
815.262,1.449
815.531,1.447
815.799,1.452
816.068,1.446
816.336,1.432
816.605,1.426
816.873,1.432
817.142,1.447
817.411,1.459
817.679,1.464
817.948,1.473
818.216,1.492
818.485,1.537
818.753,1.576
819.021,1.556
819.290,1.497
819.558,1.446
819.827,1.444
820.095,1.457
820.363,1.462
820.632,1.458
820.900,1.453
821.168,1.452
821.437,1.458
821.705,1.459
821.973,1.457
822.241,1.456
822.509,1.459
822.777,1.452
823.046,1.443
823.314,1.443
823.582,1.453
823.850,1.461
824.118,1.464
824.386,1.459
824.654,1.439
824.922,1.415
825.190,1.400
825.457,1.411
825.725,1.429
825.993,1.434
826.261,1.428
826.529,1.424
826.796,1.425
827.064,1.423
827.332,1.422
827.599,1.430
827.867,1.447
828.134,1.457
828.402,1.448
828.669,1.431
828.937,1.420
829.204,1.434
829.471,1.461
829.739,1.481
830.006,1.485
830.273,1.472
830.540,1.455
830.807,1.436
831.075,1.431
831.342,1.437
831.609,1.441
831.876,1.444
832.142,1.448
832.409,1.452
832.676,1.444
832.943,1.425
833.210,1.411
833.476,1.406
833.743,1.412
834.010,1.421
834.276,1.419
834.543,1.412
834.809,1.413
835.076,1.423
835.342,1.433
835.608,1.446
835.874,1.456
836.141,1.457
836.407,1.448
836.673,1.434
836.939,1.428
837.205,1.422
837.471,1.418
837.737,1.419
838.002,1.422
838.268,1.424
838.534,1.428
838.799,1.426
839.065,1.435
839.330,1.438
839.596,1.442
839.861,1.444
840.127,1.451
840.392,1.457
840.657,1.461
840.922,1.469
841.187,1.473
841.452,1.472
841.717,1.468
841.982,1.462
842.247,1.451
842.511,1.438
842.776,1.435
843.041,1.437
843.305,1.432
843.570,1.425
843.834,1.424
844.098,1.425
844.362,1.425
844.627,1.418
844.891,1.415
845.155,1.417
845.419,1.425
845.682,1.433
845.946,1.441
846.210,1.447
846.474,1.445
846.737,1.445
847.001,1.442
847.264,1.432
847.527,1.424
847.790,1.420
848.054,1.421
848.317,1.416
848.580,1.409
848.843,1.410
849.105,1.425
849.368,1.447
849.631,1.461
849.893,1.467
850.156,1.472
850.418,1.477
850.680,1.462
850.943,1.446
851.205,1.443
851.467,1.446
851.729,1.441
851.991,1.436
852.252,1.440
852.514,1.454
852.776,1.460
853.037,1.465
853.298,1.457
853.560,1.444
853.821,1.425
854.082,1.411
854.343,1.415
854.604,1.434
854.865,1.466
855.126,1.485
855.386,1.498
855.647,1.495
855.907,1.488
856.168,1.468
856.428,1.447
856.688,1.433
856.948,1.418
857.208,1.406
857.468,1.402
857.727,1.409
857.987,1.419
858.247,1.427
858.506,1.439
858.765,1.446
859.024,1.436
859.284,1.422
859.543,1.412
859.801,1.413
860.060,1.419
860.319,1.435
860.577,1.452
860.836,1.461
861.094,1.463
861.352,1.458
861.611,1.449
861.869,1.434
862.127,1.427
862.384,1.431
862.642,1.440
862.900,1.457
863.157,1.467
863.414,1.462
863.672,1.440
863.929,1.417
864.186,1.412
864.443,1.419
864.699,1.428
864.956,1.431
865.212,1.418
865.469,1.410
865.725,1.414
865.981,1.433
866.237,1.444
866.493,1.446
866.749,1.433
867.005,1.423
867.260,1.409
867.516,1.402
867.771,1.393
868.026,1.394
868.282,1.409
868.536,1.422
868.791,1.425
869.046,1.412
869.301,1.403
869.555,1.402
869.809,1.414
870.064,1.425
870.318,1.436
870.572,1.442
870.826,1.431
871.079,1.416
871.333,1.403
871.586,1.404
871.840,1.408
872.093,1.410
872.346,1.421
872.599,1.443
872.852,1.468
873.105,1.480
873.357,1.472
873.610,1.453
873.862,1.446
874.114,1.449
874.366,1.456
874.618,1.448
874.870,1.426
875.121,1.406
875.373,1.400
875.624,1.409
875.876,1.416
876.127,1.417
876.378,1.412
876.629,1.406
876.879,1.408
877.130,1.414
877.381,1.414
877.631,1.403
877.881,1.395
878.131,1.403
878.381,1.427
878.631,1.453
878.881,1.468
879.130,1.467
879.380,1.458
879.629,1.446
879.878,1.435
880.127,1.429
880.376,1.433
880.625,1.447
880.873,1.458
881.122,1.462
881.370,1.455
881.618,1.442
881.866,1.427
882.114,1.414
882.362,1.410
882.610,1.416
882.857,1.422
883.105,1.426
883.352,1.416
883.599,1.404
883.846,1.390
884.093,1.384
884.340,1.392
884.586,1.411
884.833,1.428
885.079,1.436
885.325,1.430
885.571,1.424
885.817,1.421
886.063,1.429
886.309,1.439
886.554,1.450
886.800,1.458
887.045,1.461
887.290,1.445
887.535,1.419
887.780,1.405
888.025,1.418
888.270,1.444
888.514,1.466
888.758,1.469
889.003,1.460
889.247,1.434
889.491,1.427
889.735,1.434
889.978,1.452
890.222,1.452
890.465,1.444
890.709,1.433
890.952,1.421
891.195,1.411
891.438,1.405
891.681,1.399
891.923,1.398
892.166,1.405
892.408,1.412
892.651,1.408
892.893,1.396
893.135,1.389
893.377,1.390
893.619,1.395
893.861,1.408
894.102,1.421
894.344,1.441
894.585,1.465
894.826,1.483
895.067,1.476
895.308,1.456
895.549,1.432
895.790,1.418
896.031,1.406
896.271,1.413
896.512,1.434
896.752,1.452
896.992,1.452
897.232,1.437
897.472,1.426
897.712,1.433
897.952,1.453
898.191,1.461
898.431,1.456
898.670,1.456
898.910,1.463
899.149,1.478
899.388,1.483
899.627,1.480
899.866,1.466
900.105,1.446
900.343,1.438
900.582,1.439
900.820,1.449
901.059,1.462
901.297,1.467
901.535,1.452
901.773,1.425
902.011,1.403
902.249,1.389
902.487,1.386
902.725,1.391
902.963,1.406
903.200,1.412
903.438,1.413
903.675,1.415
903.912,1.425
904.150,1.439
904.387,1.442
904.624,1.429
904.861,1.409
905.098,1.395
905.334,1.396
905.571,1.398
905.808,1.405
906.045,1.419
906.281,1.433
906.518,1.440
906.754,1.441
906.990,1.441
907.227,1.438
907.463,1.426
907.699,1.420
907.935,1.427
908.171,1.439
908.407,1.437
908.643,1.429
908.879,1.423
909.115,1.429
909.350,1.435
909.586,1.437
909.822,1.440
910.057,1.456
910.293,1.484
910.528,1.505
910.764,1.501
910.999,1.495
911.235,1.481
911.470,1.480
911.706,1.466
911.941,1.460
912.176,1.449
912.412,1.438
912.647,1.434
912.882,1.437
913.117,1.441
913.352,1.438
913.588,1.425
913.823,1.416
914.058,1.412
914.293,1.417
914.528,1.414
914.763,1.410
914.999,1.409
915.234,1.414
915.469,1.420
915.704,1.420
915.939,1.414
916.174,1.406
916.409,1.409
916.645,1.424
916.880,1.439
917.115,1.447
917.350,1.443
917.586,1.439
917.821,1.439
918.056,1.447
918.292,1.455
918.527,1.452
918.763,1.438
918.998,1.426
919.234,1.436
919.469,1.457
919.705,1.470
919.940,1.466
920.176,1.456
920.412,1.455
920.648,1.453
920.884,1.446
921.120,1.436
921.356,1.428
921.592,1.426
921.828,1.426
922.065,1.431
922.301,1.441
922.537,1.451
922.774,1.456
923.011,1.449
923.247,1.435
923.484,1.432
923.721,1.440
923.958,1.453
924.195,1.452
924.433,1.443
924.670,1.424
924.908,1.408
925.145,1.405
925.383,1.418
925.621,1.432
925.859,1.437
926.097,1.440
926.335,1.442
926.574,1.449
926.813,1.455
927.051,1.456
927.290,1.453
927.529,1.464
927.769,1.489
928.008,1.508
928.248,1.485
928.487,1.455
928.727,1.438
928.967,1.451
929.208,1.460
929.448,1.458
929.689,1.447
929.930,1.434
930.171,1.423
930.413,1.419
930.654,1.417
930.896,1.408
931.138,1.397
931.380,1.391
931.623,1.404
931.865,1.423
932.108,1.442
932.352,1.453
932.595,1.457
932.839,1.460
933.083,1.453
933.327,1.441
933.571,1.428
933.816,1.431
934.061,1.436
934.307,1.437
934.552,1.426
934.798,1.423
935.045,1.425
935.291,1.429
935.538,1.429
935.785,1.435
936.033,1.449
936.281,1.463
936.529,1.467
936.777,1.463
937.026,1.449
937.275,1.436
937.525,1.421
937.775,1.411
938.025,1.404
938.276,1.400
938.527,1.399
938.778,1.396
939.030,1.394
939.282,1.395
939.535,1.402
939.788,1.416
940.041,1.422
940.295,1.420
940.550,1.421
940.804,1.432
941.059,1.445
941.315,1.441
941.571,1.424
941.828,1.409
942.085,1.406
942.342,1.411
942.600,1.414
942.858,1.414
943.117,1.408
943.377,1.402
943.636,1.393
943.897,1.392
944.158,1.400
944.419,1.414
944.681,1.419
944.944,1.424
945.207,1.432
945.470,1.443
945.734,1.452
945.999,1.467
946.264,1.485
946.530,1.491
946.797,1.482
947.064,1.467
947.331,1.457
947.600,1.442
947.869,1.429
948.138,1.416
948.408,1.411
948.679,1.411
948.950,1.412
949.222,1.406
949.495,1.399
949.768,1.402
950.043,1.422
